Stopping power dEdx from Ionisation for Al27[0.0] Z = 13 in G4_TISSUE_SOFT_ICRP, process name: ionIoni
E [MeV]	dEdx [MeV/mm]
0.001	55.7639
0.00100577	55.9247
0.00101158	56.0859
0.00101742	56.2475
0.00102329	56.4096
0.0010292	56.5722
0.00103514	56.7353
0.00104112	56.8988
0.00104713	57.0628
0.00105317	57.2273
0.00105925	57.3923
0.00106537	57.5577
0.00107152	57.7236
0.00107771	57.89
0.00108393	58.0568
0.00109018	58.2242
0.00109648	58.392
0.00110281	58.5603
0.00110917	58.7291
0.00111558	58.8984
0.00112202	59.0682
0.0011285	59.2384
0.00113501	59.4092
0.00114156	59.5804
0.00114815	59.7521
0.00115478	59.9244
0.00116145	60.0971
0.00116815	60.2703
0.0011749	60.444
0.00118168	60.6183
0.0011885	60.793
0.00119536	60.9682
0.00120226	61.1439
0.00120921	61.3202
0.00121619	61.4969
0.00122321	61.6742
0.00123027	61.852
0.00123737	62.0302
0.00124451	62.209
0.0012517	62.3883
0.00125893	62.5682
0.00126619	62.7485
0.0012735	62.9294
0.00128086	63.1108
0.00128825	63.2927
0.00129569	63.4751
0.00130317	63.6581
0.00131069	63.8415
0.00131826	64.0256
0.00132587	64.2101
0.00133352	64.3952
0.00134122	64.5808
0.00134896	64.7669
0.00135675	64.9536
0.00136458	65.1408
0.00137246	65.3286
0.00138038	65.5169
0.00138835	65.7058
0.00139637	65.8951
0.00140443	66.0851
0.00141254	66.2756
0.00142069	66.4666
0.00142889	66.6582
0.00143714	66.8503
0.00144544	67.043
0.00145378	67.2362
0.00146218	67.43
0.00147062	67.6244
0.00147911	67.8193
0.00148765	68.0148
0.00149624	68.2108
0.00150487	68.4075
0.00151356	68.6046
0.0015223	68.8024
0.00153109	69.0007
0.00153993	69.1996
0.00154882	69.399
0.00155776	69.5991
0.00156675	69.7997
0.0015758	70.0009
0.00158489	70.2026
0.00159404	70.405
0.00160325	70.6079
0.0016125	70.8114
0.00162181	71.0155
0.00163117	71.2202
0.00164059	71.4255
0.00165006	71.6314
0.00165959	71.8379
0.00166917	72.0449
0.0016788	72.2526
0.0016885	72.4608
0.00169824	72.6697
0.00170805	72.8792
0.00171791	73.0892
0.00172783	73.2999
0.0017378	73.5112
0.00174783	73.7231
0.00175792	73.9356
0.00176807	74.1487
0.00177828	74.3624
0.00178855	74.5767
0.00179887	74.7917
0.00180926	75.0073
0.0018197	75.2235
0.00183021	75.4403
0.00184077	75.6577
0.0018514	75.8758
0.00186209	76.0945
0.00187284	76.3139
0.00188365	76.5338
0.00189452	76.7544
0.00190546	76.9757
0.00191646	77.1975
0.00192752	77.42
0.00193865	77.6432
0.00194984	77.867
0.0019611	78.0914
0.00197242	78.3165
0.00198381	78.5423
0.00199526	78.7687
0.00200678	78.9957
0.00201837	79.2234
0.00203002	79.4517
0.00204174	79.6807
0.00205353	79.9104
0.00206538	80.1408
0.0020773	80.3717
0.0020893	80.6034
0.00210136	80.8357
0.00211349	81.0687
0.00212569	81.3024
0.00213796	81.5368
0.0021503	81.7718
0.00216272	82.0075
0.0021752	82.2438
0.00218776	82.4809
0.00220039	82.7186
0.00221309	82.9571
0.00222587	83.1962
0.00223872	83.436
0.00225165	83.6765
0.00226464	83.9177
0.00227772	84.1595
0.00229087	84.4021
0.00230409	84.6454
0.00231739	84.8894
0.00233077	85.1341
0.00234423	85.3795
0.00235776	85.6256
0.00237137	85.8724
0.00238506	86.1199
0.00239883	86.3681
0.00241268	86.6171
0.00242661	86.8667
0.00244062	87.1171
0.00245471	87.3682
0.00246888	87.62
0.00248313	87.8726
0.00249747	88.1259
0.00251189	88.3799
0.00252639	88.6346
0.00254097	88.8901
0.00255564	89.1463
0.0025704	89.4033
0.00258523	89.661
0.00260016	89.9194
0.00261517	90.1786
0.00263027	90.4385
0.00264545	90.6992
0.00266073	90.9606
0.00267609	91.2228
0.00269153	91.4857
0.00270707	91.7494
0.0027227	92.0139
0.00273842	92.2791
0.00275423	92.5451
0.00277013	92.8118
0.00278612	93.0794
0.00280221	93.3477
0.00281838	93.6167
0.00283465	93.8866
0.00285102	94.1572
0.00286748	94.4286
0.00288403	94.7007
0.00290068	94.9737
0.00291743	95.2475
0.00293427	95.522
0.00295121	95.7973
0.00296825	96.0735
0.00298538	96.3504
0.00300262	96.6281
0.00301995	96.9066
0.00303739	97.1859
0.00305492	97.4661
0.00307256	97.747
0.0030903	98.0287
0.00310814	98.3113
0.00312608	98.5947
0.00314413	98.8788
0.00316228	99.1639
0.00318053	99.4497
0.0031989	99.7363
0.00321736	100.024
0.00323594	100.312
0.00325462	100.601
0.00327341	100.891
0.0032923	101.182
0.00331131	101.474
0.00333043	101.766
0.00334965	102.059
0.00336899	102.354
0.00338844	102.649
0.003408	102.945
0.00342768	103.241
0.00344747	103.539
0.00346737	103.837
0.00348739	104.137
0.00350752	104.437
0.00352777	104.738
0.00354813	105.04
0.00356862	105.342
0.00358922	105.646
0.00360994	105.951
0.00363078	106.256
0.00365174	106.562
0.00367282	106.869
0.00369403	107.177
0.00371535	107.486
0.0037368	107.796
0.00375837	108.107
0.00378007	108.419
0.00380189	108.731
0.00382384	109.044
0.00384592	109.359
0.00386812	109.674
0.00389045	109.99
0.00391291	110.307
0.0039355	110.625
0.00395822	110.944
0.00398107	111.264
0.00400405	111.584
0.00402717	111.906
0.00405042	112.229
0.0040738	112.552
0.00409732	112.876
0.00412098	113.202
0.00414477	113.528
0.00416869	113.855
0.00419276	114.184
0.00421697	114.513
0.00424131	114.843
0.0042658	115.174
0.00429042	115.506
0.00431519	115.839
0.0043401	116.173
0.00436516	116.507
0.00439036	116.843
0.0044157	117.18
0.0044412	117.518
0.00446684	117.856
0.00449262	118.196
0.00451856	118.537
0.00454465	118.879
0.00457088	119.221
0.00459727	119.565
0.00462381	119.909
0.0046505	120.255
0.00467735	120.602
0.00470435	120.949
0.00473151	121.298
0.00475883	121.648
0.0047863	121.998
0.00481393	122.35
0.00484172	122.702
0.00486968	123.056
0.00489779	123.411
0.00492606	123.767
0.0049545	124.123
0.0049831	124.481
0.00501187	124.84
0.00504081	125.2
0.00506991	125.561
0.00509918	125.923
0.00512861	126.285
0.00515822	126.649
0.005188	127.015
0.00521795	127.381
0.00524807	127.748
0.00527837	128.116
0.00530884	128.485
0.00533949	128.856
0.00537032	129.227
0.00540132	129.6
0.0054325	129.973
0.00546387	130.348
0.00549541	130.723
0.00552713	131.1
0.00555904	131.478
0.00559114	131.857
0.00562341	132.237
0.00565588	132.618
0.00568853	133.001
0.00572137	133.384
0.0057544	133.768
0.00578762	134.154
0.00582103	134.541
0.00585464	134.928
0.00588844	135.317
0.00592243	135.707
0.00595662	136.099
0.00599101	136.491
0.0060256	136.884
0.00606038	137.279
0.00609537	137.674
0.00613056	138.071
0.00616595	138.469
0.00620155	138.868
0.00623735	139.269
0.00627336	139.67
0.00630957	140.073
0.006346	140.476
0.00638263	140.881
0.00641948	141.287
0.00645654	141.695
0.00649382	142.103
0.00653131	142.513
0.00656901	142.923
0.00660693	143.335
0.00664508	143.749
0.00668344	144.163
0.00672202	144.578
0.00676083	144.99
0.00679986	145.398
0.00683912	145.807
0.0068786	146.217
0.00691831	146.628
0.00695825	147.041
0.00699842	147.455
0.00703882	147.869
0.00707946	148.286
0.00712033	148.703
0.00716143	149.121
0.00720278	149.541
0.00724436	149.962
0.00728618	150.384
0.00732825	150.807
0.00737055	151.232
0.0074131	151.658
0.0074559	152.085
0.00749894	152.513
0.00754223	152.943
0.00758578	153.373
0.00762957	153.805
0.00767361	154.238
0.00771792	154.673
0.00776247	155.109
0.00780728	155.545
0.00785236	155.984
0.00789769	156.423
0.00794328	156.864
0.00798914	157.306
0.00803526	157.749
0.00808165	158.194
0.00812831	158.64
0.00817523	159.087
0.00822243	159.535
0.0082699	159.985
0.00831764	160.436
0.00836566	160.888
0.00841395	161.342
0.00846253	161.797
0.00851138	162.253
0.00856052	162.711
0.00860994	163.169
0.00865964	163.63
0.00870964	164.091
0.00875992	164.554
0.00881049	165.018
0.00886135	165.484
0.00891251	165.951
0.00896396	166.419
0.00901571	166.889
0.00906776	167.359
0.00912011	167.832
0.00917276	168.305
0.00922571	168.78
0.00927897	169.257
0.00933254	169.735
0.00938642	170.214
0.00944061	170.694
0.00949511	171.176
0.00954993	171.66
0.00960506	172.144
0.00966051	172.63
0.00971628	173.118
0.00977237	173.607
0.00982879	174.097
0.00988553	174.589
0.0099426	175.082
0.01	175.577
0.0100577	176.073
0.0101158	176.57
0.0101742	177.069
0.0102329	177.57
0.010292	178.072
0.0103514	178.575
0.0104112	179.079
0.0104713	179.586
0.0105317	180.093
0.0105925	180.602
0.0106537	181.113
0.0107152	181.625
0.0107771	182.139
0.0108393	182.654
0.0109018	183.17
0.0109648	183.688
0.0110281	184.208
0.0110917	184.729
0.0111558	185.251
0.0112202	185.775
0.011285	186.301
0.0113501	186.828
0.0114156	187.357
0.0114815	187.887
0.0115478	188.418
0.0116145	188.952
0.0116815	189.486
0.011749	190.023
0.0118168	190.561
0.011885	191.1
0.0119536	191.641
0.0120226	192.184
0.0120921	192.728
0.0121619	193.273
0.0122321	193.821
0.0123027	194.37
0.0123737	194.92
0.0124451	195.472
0.012517	196.026
0.0125893	196.581
0.0126619	197.138
0.012735	197.696
0.0128086	198.256
0.0128825	198.818
0.0129569	199.382
0.0130317	199.947
0.0131069	200.513
0.0131826	201.082
0.0132587	201.651
0.0133352	202.223
0.0134122	202.796
0.0134896	203.371
0.0135675	203.948
0.0136458	204.526
0.0137246	205.106
0.0138038	205.688
0.0138835	206.271
0.0139637	206.856
0.0140443	207.443
0.0141254	208.031
0.0142069	208.621
0.0142889	209.213
0.0143714	209.807
0.0144544	210.402
0.0145378	210.999
0.0146218	211.598
0.0147062	212.198
0.0147911	212.8
0.0148765	213.404
0.0149624	214.01
0.0150487	214.617
0.0151356	215.227
0.015223	215.838
0.0153109	216.451
0.0153993	217.065
0.0154882	217.681
0.0155776	218.3
0.0156675	218.92
0.015758	219.541
0.0158489	220.165
0.0159404	220.79
0.0160325	221.418
0.016125	222.047
0.0162181	222.677
0.0163117	223.31
0.0164059	223.945
0.0165006	224.581
0.0165959	225.219
0.0166917	225.859
0.016788	226.501
0.016885	227.145
0.0169824	227.791
0.0170805	228.438
0.0171791	229.088
0.0172783	229.739
0.017378	230.393
0.0174783	231.048
0.0175792	231.705
0.0176807	232.364
0.0177828	233.025
0.0178855	233.687
0.0179887	234.352
0.0180926	235.019
0.018197	235.688
0.0183021	236.358
0.0184077	237.031
0.018514	237.705
0.0186209	238.382
0.0187284	239.06
0.0188365	239.741
0.0189452	240.423
0.0190546	241.107
0.0191646	241.794
0.0192752	242.482
0.0193865	243.172
0.0194984	243.865
0.019611	244.559
0.0197242	245.256
0.0198381	245.954
0.0199526	246.655
0.0200678	247.357
0.0201837	248.062
0.0203002	248.769
0.0204174	249.477
0.0205353	250.188
0.0206538	250.901
0.020773	251.616
0.020893	252.333
0.0210136	253.052
0.0211349	253.773
0.0212569	254.497
0.0213796	255.222
0.021503	255.95
0.0216272	256.679
0.021752	257.411
0.0218776	258.145
0.0220039	258.881
0.0221309	259.62
0.0222587	260.36
0.0223872	261.103
0.0225165	261.847
0.0226464	262.594
0.0227772	263.343
0.0229087	264.095
0.0230409	264.848
0.0231739	265.604
0.0233077	266.362
0.0234423	267.122
0.0235776	267.884
0.0237137	268.649
0.0238506	269.416
0.0239883	270.185
0.0241268	270.956
0.0242661	271.73
0.0244062	272.505
0.0245471	273.284
0.0246888	274.064
0.0248313	274.847
0.0249747	275.631
0.0251189	276.419
0.0252639	277.208
0.0254097	278
0.0255564	278.794
0.025704	279.591
0.0258523	280.39
0.0260016	281.191
0.0261517	281.994
0.0263027	282.8
0.0264545	283.608
0.0266073	284.419
0.0267609	285.232
0.0269153	286.047
0.0270707	286.475
0.027227	286.666
0.0273842	286.859
0.0275423	287.054
0.0277013	287.25
0.0278612	287.449
0.0280221	287.65
0.0281838	287.853
0.0283465	288.057
0.0285102	288.264
0.0286748	288.472
0.0288403	288.682
0.0290068	288.894
0.0291743	289.107
0.0293427	289.323
0.0295121	289.54
0.0296825	289.759
0.0298538	289.979
0.0300262	290.201
0.0301995	290.425
0.0303739	290.65
0.0305492	290.877
0.0307256	291.106
0.030903	291.336
0.0310814	291.568
0.0312608	291.801
0.0314413	292.035
0.0316228	292.272
0.0318053	292.509
0.031989	292.748
0.0321736	292.989
0.0323594	293.231
0.0325462	293.474
0.0327341	293.719
0.032923	293.965
0.0331131	294.212
0.0333043	294.461
0.0334965	294.711
0.0336899	294.963
0.0338844	295.215
0.03408	295.469
0.0342768	295.725
0.0344747	295.981
0.0346737	296.239
0.0348739	296.498
0.0350752	296.758
0.0352777	297.02
0.0354813	297.283
0.0356862	297.546
0.0358922	297.811
0.0360994	298.078
0.0363078	298.345
0.0365174	298.614
0.0367282	298.883
0.0369403	299.154
0.0371535	299.426
0.037368	299.699
0.0375837	299.974
0.0378007	300.249
0.0380189	300.525
0.0382384	300.803
0.0384592	301.082
0.0386812	301.361
0.0389045	301.642
0.0391291	301.924
0.039355	302.207
0.0395822	302.491
0.0398107	302.776
0.0400405	303.062
0.0402717	303.349
0.0405042	303.637
0.040738	303.926
0.0409732	304.216
0.0412098	304.507
0.0414477	304.799
0.0416869	305.092
0.0419276	305.386
0.0421697	305.682
0.0424131	305.978
0.042658	306.275
0.0429042	306.573
0.0431519	306.872
0.043401	307.172
0.0436516	307.473
0.0439036	307.776
0.044157	308.079
0.044412	308.383
0.0446684	308.688
0.0449262	308.994
0.0451856	309.301
0.0454465	309.609
0.0457088	309.917
0.0459727	310.227
0.0462381	310.538
0.046505	310.85
0.0467735	311.163
0.0470435	311.477
0.0473151	311.791
0.0475883	312.107
0.047863	312.424
0.0481393	312.741
0.0484172	313.06
0.0486968	313.38
0.0489779	313.7
0.0492606	314.022
0.049545	314.344
0.049831	314.668
0.0501187	314.992
0.0504081	315.318
0.0506991	315.644
0.0509918	315.972
0.0512861	316.3
0.0515822	316.63
0.05188	316.96
0.0521795	317.291
0.0524807	317.624
0.0527837	317.957
0.0530884	318.292
0.0533949	318.627
0.0537032	318.964
0.0540132	319.301
0.054325	319.639
0.0546387	319.979
0.0549541	320.319
0.0552713	320.661
0.0555904	321.004
0.0559114	321.347
0.0562341	321.692
0.0565588	322.037
0.0568853	322.384
0.0572137	322.732
0.057544	323.081
0.0578762	323.431
0.0582103	323.782
0.0585464	324.134
0.0588844	324.487
0.0592243	324.841
0.0595662	325.196
0.0599101	325.552
0.060256	325.91
0.0606038	326.268
0.0609537	326.628
0.0613056	326.989
0.0616595	327.351
0.0620155	327.714
0.0623735	328.078
0.0627336	328.443
0.0630957	328.809
0.06346	329.177
0.0638263	329.545
0.0641948	329.915
0.0645654	330.286
0.0649382	330.658
0.0653131	331.032
0.0656901	331.406
0.0660693	331.782
0.0664508	332.159
0.0668344	332.537
0.0672202	332.916
0.0676083	333.297
0.0679986	333.678
0.0683912	334.061
0.068786	334.446
0.0691831	334.831
0.0695825	335.218
0.0699842	335.606
0.0703882	335.995
0.0707946	336.385
0.0712033	336.777
0.0716143	337.17
0.0720278	337.564
0.0724436	337.96
0.0728618	338.357
0.0732825	338.755
0.0737055	339.154
0.074131	339.555
0.074559	339.957
0.0749894	340.361
0.0754223	340.766
0.0758578	341.172
0.0762957	341.58
0.0767361	341.989
0.0771792	342.399
0.0776247	342.811
0.0780728	343.224
0.0785236	343.638
0.0789769	344.054
0.0794328	344.472
0.0798914	344.89
0.0803526	345.311
0.0808165	345.732
0.0812831	346.155
0.0817523	346.58
0.0822243	347.006
0.082699	347.434
0.0831764	347.863
0.0836566	348.293
0.0841395	348.725
0.0846253	349.159
0.0851138	349.594
0.0856052	350.03
0.0860994	350.468
0.0865964	350.908
0.0870964	351.349
0.0875992	351.792
0.0881049	352.236
0.0886135	352.682
0.0891251	353.13
0.0896396	353.579
0.0901571	354.029
0.0906776	354.482
0.0912011	354.936
0.0917276	355.391
0.0922571	355.848
0.0927897	356.307
0.0933254	356.768
0.0938642	357.23
0.0944061	357.694
0.0949511	358.159
0.0954993	358.626
0.0960506	359.095
0.0966051	359.566
0.0971628	360.038
0.0977237	360.512
0.0982879	360.988
0.0988553	361.465
0.099426	361.945
0.1	362.426
0.100577	362.908
0.101158	363.393
0.101742	363.879
0.102329	364.368
0.10292	364.857
0.103514	365.349
0.104112	365.843
0.104713	366.338
0.105317	366.836
0.105925	367.335
0.106537	367.836
0.107152	368.339
0.107771	368.843
0.108393	369.35
0.109018	369.858
0.109648	370.369
0.110281	370.881
0.110917	371.395
0.111558	371.912
0.112202	372.43
0.11285	372.95
0.113501	373.472
0.114156	373.996
0.114815	374.522
0.115478	375.05
0.116145	375.58
0.116815	376.112
0.11749	376.646
0.118168	377.182
0.11885	377.72
0.119536	378.26
0.120226	378.802
0.120921	379.346
0.121619	379.893
0.122321	380.441
0.123027	380.991
0.123737	381.544
0.124451	382.099
0.12517	382.655
0.125893	383.214
0.126619	383.775
0.12735	384.338
0.128086	384.904
0.128825	385.471
0.129569	386.041
0.130317	386.613
0.131069	387.187
0.131826	387.763
0.132587	388.341
0.133352	388.922
0.134122	389.505
0.134896	390.09
0.135675	390.677
0.136458	391.267
0.137246	391.858
0.138038	392.453
0.138835	393.049
0.139637	393.648
0.140443	394.249
0.141254	394.852
0.142069	395.457
0.142889	396.065
0.143714	396.675
0.144544	397.288
0.145378	397.903
0.146218	398.52
0.147062	399.14
0.147911	399.762
0.148765	400.386
0.149624	401.013
0.150487	401.642
0.151356	402.274
0.15223	402.908
0.153109	403.544
0.153993	404.183
0.154882	404.825
0.155776	405.468
0.156675	406.115
0.15758	406.763
0.158489	407.415
0.159404	408.068
0.160325	408.725
0.16125	409.383
0.162181	410.045
0.163117	410.708
0.164059	411.375
0.165006	412.043
0.165959	412.715
0.166917	413.389
0.16788	414.065
0.16885	414.744
0.169824	415.426
0.170805	416.11
0.171791	416.797
0.172783	417.487
0.17378	418.179
0.174783	418.874
0.175792	419.571
0.176807	420.271
0.177828	420.974
0.178855	421.679
0.179887	422.387
0.180926	423.098
0.18197	423.811
0.183021	424.528
0.184077	425.246
0.18514	425.968
0.186209	426.692
0.187284	427.419
0.188365	428.149
0.189452	428.881
0.190546	429.616
0.191646	430.354
0.192752	431.095
0.193865	431.839
0.194984	432.585
0.19611	433.334
0.197242	434.086
0.198381	434.841
0.199526	435.598
0.200678	436.359
0.201837	437.122
0.203002	437.888
0.204174	438.657
0.205353	439.428
0.206538	440.203
0.20773	440.981
0.20893	441.761
0.210136	442.544
0.211349	443.33
0.212569	444.119
0.213796	444.911
0.21503	445.706
0.216272	446.504
0.21752	447.305
0.218776	448.108
0.220039	448.915
0.221309	449.725
0.222587	450.537
0.223872	451.353
0.225165	452.171
0.226464	452.993
0.227772	453.817
0.229087	454.645
0.230409	455.475
0.231739	456.309
0.233077	457.145
0.234423	457.985
0.235776	458.827
0.237137	459.673
0.238506	460.522
0.239883	461.373
0.241268	462.228
0.242661	463.086
0.244062	463.947
0.245471	464.811
0.246888	465.678
0.248313	466.548
0.249747	467.421
0.251189	468.298
0.252639	469.177
0.254097	470.06
0.255564	470.946
0.25704	471.835
0.258523	472.727
0.260016	473.622
0.261517	474.52
0.263027	475.421
0.264545	476.326
0.266073	477.234
0.267609	478.145
0.269153	479.059
0.270707	479.976
0.27227	480.897
0.273842	481.82
0.275423	482.747
0.277013	483.677
0.278612	484.61
0.280221	485.547
0.281838	486.487
0.283465	487.43
0.285102	488.376
0.286748	489.325
0.288403	490.278
0.290068	491.234
0.291743	492.193
0.293427	493.155
0.295121	494.121
0.296825	495.09
0.298538	496.062
0.300262	497.037
0.301995	498.016
0.303739	498.998
0.305492	499.983
0.307256	500.972
0.30903	501.963
0.310814	502.958
0.312608	503.957
0.314413	504.959
0.316228	505.963
0.318053	506.972
0.31989	507.983
0.321736	508.998
0.323594	510.016
0.325462	511.038
0.327341	512.063
0.32923	513.091
0.331131	514.122
0.333043	515.157
0.334965	516.195
0.336899	517.237
0.338844	518.282
0.3408	519.33
0.342768	520.381
0.344747	521.436
0.346737	522.494
0.348739	523.555
0.350752	524.62
0.352777	525.688
0.354813	526.76
0.356862	527.834
0.358922	528.913
0.360994	529.994
0.363078	531.079
0.365174	532.167
0.367282	533.259
0.369403	534.353
0.371535	535.452
0.37368	536.553
0.375837	537.658
0.378007	538.766
0.380189	539.878
0.382384	540.993
0.384592	542.111
0.386812	543.232
0.389045	544.357
0.391291	545.485
0.39355	546.617
0.395822	547.752
0.398107	548.89
0.400405	550.032
0.402717	551.176
0.405042	552.325
0.40738	553.476
0.409732	554.631
0.412098	555.789
0.414477	556.95
0.416869	558.115
0.419276	559.283
0.421697	560.454
0.424131	561.629
0.42658	562.807
0.429042	563.988
0.431519	565.172
0.43401	566.36
0.436516	567.551
0.439036	568.745
0.44157	569.943
0.44412	571.144
0.446684	572.348
0.449262	573.555
0.451856	574.765
0.454465	575.979
0.457088	577.196
0.459727	578.416
0.462381	579.639
0.46505	580.866
0.467735	582.095
0.470435	583.328
0.473151	584.564
0.475883	585.804
0.47863	587.046
0.481393	588.291
0.484172	589.54
0.486968	590.792
0.489779	592.047
0.492606	593.305
0.49545	594.566
0.49831	595.83
0.501187	597.097
0.504081	598.367
0.506991	599.641
0.509918	600.917
0.512861	602.197
0.515822	603.479
0.5188	604.765
0.521795	606.053
0.524807	607.344
0.527837	608.639
0.530884	609.936
0.533949	611.236
0.537032	612.539
0.540132	614.906
0.54325	617.575
0.546387	620.262
0.549541	622.968
0.552713	625.694
0.555904	628.439
0.559114	631.203
0.562341	633.988
0.565588	636.792
0.568853	639.616
0.572137	642.461
0.57544	645.326
0.578762	648.211
0.582103	651.117
0.585464	654.045
0.588844	656.993
0.592243	659.962
0.595662	662.954
0.599101	665.966
0.60256	669.001
0.606038	672.057
