Stopping power dEdx from Ionisation for Al27[0.0] Z = 13 in G4_Si, process name: ionIoni
E [MeV]	dEdx [MeV/mm]
0.001	32.3385
0.00100577	32.4324
0.00101158	32.5267
0.00101742	32.6212
0.00102329	32.716
0.0010292	32.8111
0.00103514	32.9064
0.00104112	33.002
0.00104713	33.0979
0.00105317	33.1941
0.00105925	33.2905
0.00106537	33.3872
0.00107152	33.4842
0.00107771	33.5815
0.00108393	33.6791
0.00109018	33.7769
0.00109648	33.875
0.00110281	33.9734
0.00110917	34.0721
0.00111558	34.1711
0.00112202	34.2704
0.0011285	34.3699
0.00113501	34.4698
0.00114156	34.5699
0.00114815	34.6703
0.00115478	34.771
0.00116145	34.872
0.00116815	34.9732
0.0011749	35.0748
0.00118168	35.1767
0.0011885	35.2788
0.00119536	35.3813
0.00120226	35.484
0.00120921	35.5871
0.00121619	35.6904
0.00122321	35.7941
0.00123027	35.898
0.00123737	36.0022
0.00124451	36.1068
0.0012517	36.2116
0.00125893	36.3168
0.00126619	36.4222
0.0012735	36.528
0.00128086	36.634
0.00128825	36.7404
0.00129569	36.847
0.00130317	36.954
0.00131069	37.0613
0.00131826	37.1689
0.00132587	37.2768
0.00133352	37.385
0.00134122	37.4935
0.00134896	37.6024
0.00135675	37.7115
0.00136458	37.821
0.00137246	37.9308
0.00138038	38.0408
0.00138835	38.1513
0.00139637	38.262
0.00140443	38.373
0.00141254	38.4844
0.00142069	38.5961
0.00142889	38.7081
0.00143714	38.8205
0.00144544	38.9331
0.00145378	39.0461
0.00146218	39.1594
0.00147062	39.2731
0.00147911	39.387
0.00148765	39.5013
0.00149624	39.6159
0.00150487	39.7309
0.00151356	39.8462
0.0015223	39.9618
0.00153109	40.0778
0.00153993	40.194
0.00154882	40.3107
0.00155776	40.4276
0.00156675	40.5449
0.0015758	40.6625
0.00158489	40.7805
0.00159404	40.8988
0.00160325	41.0175
0.0016125	41.1365
0.00162181	41.2558
0.00163117	41.3755
0.00164059	41.4955
0.00165006	41.6159
0.00165959	41.7366
0.00166917	41.8577
0.0016788	41.9791
0.0016885	42.1008
0.00169824	42.223
0.00170805	42.3454
0.00171791	42.4683
0.00172783	42.5914
0.0017378	42.715
0.00174783	42.8388
0.00175792	42.9631
0.00176807	43.0877
0.00177828	43.2127
0.00178855	43.338
0.00179887	43.4637
0.00180926	43.5897
0.0018197	43.7161
0.00183021	43.8429
0.00184077	43.97
0.0018514	44.0975
0.00186209	44.2254
0.00187284	44.3536
0.00188365	44.4822
0.00189452	44.6112
0.00190546	44.7406
0.00191646	44.8703
0.00192752	45.0004
0.00193865	45.1309
0.00194984	45.2617
0.0019611	45.393
0.00197242	45.5246
0.00198381	45.6565
0.00199526	45.7889
0.00200678	45.9217
0.00201837	46.0548
0.00203002	46.1883
0.00204174	46.3222
0.00205353	46.4565
0.00206538	46.5912
0.0020773	46.7262
0.0020893	46.8617
0.00210136	46.9975
0.00211349	47.1337
0.00212569	47.2704
0.00213796	47.4074
0.0021503	47.5448
0.00216272	47.6826
0.0021752	47.8208
0.00218776	47.9594
0.00220039	48.0984
0.00221309	48.2378
0.00222587	48.3776
0.00223872	48.5178
0.00225165	48.6584
0.00226464	48.7995
0.00227772	48.9409
0.00229087	49.0827
0.00230409	49.225
0.00231739	49.3676
0.00233077	49.5107
0.00234423	49.6541
0.00235776	49.798
0.00237137	49.9423
0.00238506	50.087
0.00239883	50.2322
0.00241268	50.3777
0.00242661	50.5237
0.00244062	50.6701
0.00245471	50.8169
0.00246888	50.9642
0.00248313	51.1118
0.00249747	51.2599
0.00251189	51.4084
0.00252639	51.5574
0.00254097	51.7067
0.00255564	51.8566
0.0025704	52.0068
0.00258523	52.1575
0.00260016	52.3086
0.00261517	52.4601
0.00263027	52.6121
0.00264545	52.7645
0.00266073	52.9173
0.00267609	53.0706
0.00269153	53.2244
0.00270707	53.3786
0.0027227	53.5332
0.00273842	53.6882
0.00275423	53.8438
0.00277013	53.9997
0.00278612	54.1561
0.00280221	54.313
0.00281838	54.4703
0.00283465	54.6281
0.00285102	54.7863
0.00286748	54.945
0.00288403	55.1041
0.00290068	55.2637
0.00291743	55.4238
0.00293427	55.5843
0.00295121	55.7453
0.00296825	55.9067
0.00298538	56.0686
0.00300262	56.231
0.00301995	56.3939
0.00303739	56.5572
0.00305492	56.721
0.00307256	56.8852
0.0030903	57.05
0.00310814	57.2152
0.00312608	57.3808
0.00314413	57.547
0.00316228	57.7136
0.00318053	57.8808
0.0031989	58.0484
0.00321736	58.2164
0.00323594	58.385
0.00325462	58.5541
0.00327341	58.7236
0.0032923	58.8936
0.00331131	59.0641
0.00333043	59.2352
0.00334965	59.4067
0.00336899	59.5787
0.00338844	59.7512
0.003408	59.9241
0.00342768	60.0976
0.00344747	60.2716
0.00346737	60.4461
0.00348739	60.6211
0.00350752	60.7966
0.00352777	60.9726
0.00354813	61.1491
0.00356862	61.3262
0.00358922	61.5037
0.00360994	61.6817
0.00363078	61.8603
0.00365174	62.0394
0.00367282	62.2189
0.00369403	62.399
0.00371535	62.5797
0.0037368	62.7608
0.00375837	62.9425
0.00378007	63.1247
0.00380189	63.3074
0.00382384	63.4906
0.00384592	63.6744
0.00386812	63.8587
0.00389045	64.0435
0.00391291	64.2289
0.0039355	64.4148
0.00395822	64.6012
0.00398107	64.7882
0.00400405	64.9757
0.00402717	65.1638
0.00405042	65.3523
0.0040738	65.5415
0.00409732	65.7312
0.00412098	65.9214
0.00414477	66.1122
0.00416869	66.3035
0.00419276	66.4954
0.00421697	66.6878
0.00424131	66.8808
0.0042658	67.0743
0.00429042	67.2684
0.00431519	67.4631
0.0043401	67.6583
0.00436516	67.8541
0.00439036	68.0504
0.0044157	68.2474
0.0044412	68.4448
0.00446684	68.6429
0.00449262	68.8415
0.00451856	69.0407
0.00454465	69.2405
0.00457088	69.4408
0.00459727	69.6417
0.00462381	69.8432
0.0046505	70.0453
0.00467735	70.248
0.00470435	70.4512
0.00473151	70.655
0.00475883	70.8595
0.0047863	71.0645
0.00481393	71.2701
0.00484172	71.4763
0.00486968	71.6831
0.00489779	71.8904
0.00492606	72.0984
0.0049545	72.307
0.0049831	72.5162
0.00501187	72.726
0.00504081	72.9364
0.00506991	73.1474
0.00509918	73.359
0.00512861	73.5712
0.00515822	73.784
0.005188	73.9974
0.00521795	74.2115
0.00524807	74.4262
0.00527837	74.6415
0.00530884	74.8574
0.00533949	75.0739
0.00537032	75.2911
0.00540132	75.5088
0.0054325	75.7273
0.00546387	75.9463
0.00549541	76.166
0.00552713	76.3863
0.00555904	76.6072
0.00559114	76.8288
0.00562341	77.051
0.00565588	77.2739
0.00568853	77.4974
0.00572137	77.7215
0.0057544	77.9463
0.00578762	78.1717
0.00582103	78.3978
0.00585464	78.6246
0.00588844	78.8519
0.00592243	79.08
0.00595662	79.3087
0.00599101	79.5381
0.0060256	79.7681
0.00606038	79.9988
0.00609537	80.2301
0.00613056	80.4621
0.00616595	80.6948
0.00620155	80.9282
0.00623735	81.1622
0.00627336	81.3969
0.00630957	81.6323
0.006346	81.8684
0.00638263	82.1051
0.00641948	82.3425
0.00645654	82.5806
0.00649382	82.8194
0.00653131	83.0589
0.00656901	83.2991
0.00660693	83.54
0.00664508	83.7815
0.00668344	84.0238
0.00672202	84.2667
0.00676083	84.5104
0.00679986	84.7547
0.00683912	84.9998
0.0068786	85.2456
0.00691831	85.4921
0.00695825	85.7392
0.00699842	85.9871
0.00703882	86.2357
0.00707946	86.4851
0.00712033	86.7351
0.00716143	86.9859
0.00720278	87.2374
0.00724436	87.4896
0.00728618	87.7426
0.00732825	87.9962
0.00737055	88.2506
0.0074131	88.5058
0.0074559	88.7616
0.00749894	89.0182
0.00754223	89.2756
0.00758578	89.5337
0.00762957	89.7925
0.00767361	90.0521
0.00771792	90.3124
0.00776247	90.5735
0.00780728	90.8354
0.00785236	91.0979
0.00789769	91.3613
0.00794328	91.6254
0.00798914	91.8903
0.00803526	92.1559
0.00808165	92.4223
0.00812831	92.6894
0.00817523	92.9574
0.00822243	93.2261
0.0082699	93.4956
0.00831764	93.7658
0.00836566	94.0368
0.00841395	94.3087
0.00846253	94.5813
0.00851138	94.8546
0.00856052	95.1288
0.00860994	95.4038
0.00865964	95.6795
0.00870964	95.9561
0.00875992	96.2334
0.00881049	96.5116
0.00886135	96.7905
0.00891251	97.0703
0.00896396	97.3508
0.00901571	97.6322
0.00906776	97.9144
0.00912011	98.1974
0.00917276	98.4812
0.00922571	98.7658
0.00927897	99.0513
0.00933254	99.3375
0.00938642	99.6246
0.00944061	99.9125
0.00949511	100.201
0.00954993	100.491
0.00960506	100.781
0.00966051	101.073
0.00971628	101.365
0.00977237	101.658
0.00982879	101.951
0.00988553	102.246
0.0099426	102.541
0.01	102.838
0.0100577	103.135
0.0101158	103.433
0.0101742	103.732
0.0102329	104.032
0.010292	104.332
0.0103514	104.634
0.0104112	104.936
0.0104713	105.239
0.0105317	105.544
0.0105925	105.848
0.0106537	106.42
0.0107152	106.727
0.0107771	107.034
0.0108393	107.343
0.0109018	107.652
0.0109648	107.963
0.0110281	108.274
0.0110917	108.586
0.0111558	108.899
0.0112202	109.213
0.011285	109.528
0.0113501	109.843
0.0114156	110.16
0.0114815	110.477
0.0115478	110.796
0.0116145	111.115
0.0116815	111.436
0.011749	111.757
0.0118168	112.079
0.011885	112.402
0.0119536	112.726
0.0120226	113.051
0.0120921	113.377
0.0121619	113.703
0.0122321	114.031
0.0123027	114.36
0.0123737	114.69
0.0124451	115.02
0.012517	115.352
0.0125893	115.684
0.0126619	116.018
0.012735	116.352
0.0128086	116.687
0.0128825	117.024
0.0129569	117.361
0.0130317	117.699
0.0131069	118.038
0.0131826	118.379
0.0132587	118.72
0.0133352	119.062
0.0134122	119.405
0.0134896	119.749
0.0135675	120.095
0.0136458	120.441
0.0137246	120.788
0.0138038	121.136
0.0138835	121.485
0.0139637	121.835
0.0140443	122.187
0.0141254	122.539
0.0142069	122.892
0.0142889	123.246
0.0143714	123.601
0.0144544	123.958
0.0145378	124.315
0.0146218	124.673
0.0147062	125.033
0.0147911	125.393
0.0148765	125.755
0.0149624	126.117
0.0150487	126.481
0.0151356	126.845
0.015223	127.211
0.0153109	127.577
0.0153993	127.945
0.0154882	128.314
0.0155776	128.684
0.0156675	129.055
0.015758	129.427
0.0158489	129.8
0.0159404	130.174
0.0160325	130.549
0.016125	130.925
0.0162181	131.303
0.0163117	131.681
0.0164059	132.061
0.0165006	132.441
0.0165959	132.823
0.0166917	133.206
0.016788	133.59
0.016885	133.975
0.0169824	134.361
0.0170805	134.748
0.0171791	135.137
0.0172783	135.526
0.017378	135.917
0.0174783	136.309
0.0175792	136.702
0.0176807	137.096
0.0177828	137.491
0.0178855	137.887
0.0179887	138.285
0.0180926	138.683
0.018197	139.083
0.0183021	139.484
0.0184077	139.886
0.018514	140.289
0.0186209	140.693
0.0187284	141.099
0.0188365	141.506
0.0189452	141.913
0.0190546	142.323
0.0191646	142.733
0.0192752	143.144
0.0193865	143.557
0.0194984	143.971
0.019611	144.386
0.0197242	144.802
0.0198381	145.219
0.0199526	145.638
0.0200678	146.057
0.0201837	146.478
0.0203002	146.901
0.0204174	147.324
0.0205353	147.749
0.0206538	148.175
0.020773	148.602
0.020893	149.03
0.0210136	149.46
0.0211349	149.89
0.0212569	150.322
0.0213796	150.756
0.021503	151.19
0.0216272	151.626
0.021752	152.063
0.0218776	152.501
0.0220039	152.941
0.0221309	153.382
0.0222587	153.824
0.0223872	154.267
0.0225165	154.712
0.0226464	155.158
0.0227772	155.605
0.0229087	156.054
0.0230409	156.503
0.0231739	156.954
0.0233077	157.407
0.0234423	157.861
0.0235776	158.316
0.0237137	158.772
0.0238506	159.23
0.0239883	159.689
0.0241268	160.149
0.0242661	160.61
0.0244062	161.073
0.0245471	161.538
0.0246888	162.003
0.0248313	162.47
0.0249747	162.938
0.0251189	163.408
0.0252639	163.879
0.0254097	164.352
0.0255564	164.825
0.025704	165.3
0.0258523	165.777
0.0260016	166.255
0.0261517	166.734
0.0263027	167.214
0.0264545	167.696
0.0266073	168.18
0.0267609	168.664
0.0269153	169.151
0.0270707	169.638
0.027227	170.127
0.0273842	170.618
0.0275423	171.109
0.0277013	171.603
0.0278612	172.097
0.0280221	172.593
0.0281838	173.091
0.0283465	173.59
0.0285102	174.09
0.0286748	174.592
0.0288403	175.095
0.0290068	175.6
0.0291743	176.106
0.0293427	176.613
0.0295121	177.122
0.0296825	177.633
0.0298538	178.145
0.0300262	178.658
0.0301995	179.173
0.0303739	179.69
0.0305492	180.208
0.0307256	180.727
0.030903	181.248
0.0310814	181.771
0.0312608	182.295
0.0314413	182.82
0.0316228	183.347
0.0318053	183.875
0.031989	184.405
0.0321736	184.937
0.0323594	185.47
0.0325462	186.005
0.0327341	186.541
0.032923	187.078
0.0331131	187.618
0.0333043	188.158
0.0334965	188.701
0.0336899	189.245
0.0338844	189.79
0.03408	190.337
0.0342768	190.886
0.0344747	191.436
0.0346737	191.988
0.0348739	192.541
0.0350752	193.096
0.0352777	193.653
0.0354813	194.211
0.0356862	194.771
0.0358922	195.332
0.0360994	195.895
0.0363078	196.46
0.0365174	197.026
0.0367282	197.594
0.0369403	198.164
0.0371535	198.735
0.037368	199.308
0.0375837	199.882
0.0378007	200.458
0.0380189	201.036
0.0382384	201.615
0.0384592	202.197
0.0386812	202.779
0.0389045	203.364
0.0391291	203.95
0.039355	204.538
0.0395822	205.127
0.0398107	205.719
0.0400405	206.312
0.0402717	206.906
0.0405042	207.503
0.040738	208.101
0.0409732	208.701
0.0412098	209.302
0.0414477	209.905
0.0416869	210.51
0.0419276	211.117
0.0421697	211.726
0.0424131	212.336
0.042658	212.948
0.0429042	213.562
0.0431519	214.177
0.043401	214.795
0.0436516	215.414
0.0439036	216.035
0.044157	216.657
0.044412	217.282
0.0446684	217.908
0.0449262	218.536
0.0451856	219.166
0.0454465	219.798
0.0457088	220.432
0.0459727	221.067
0.0462381	221.704
0.046505	222.343
0.0467735	222.984
0.0470435	223.627
0.0473151	224.271
0.0475883	224.918
0.047863	225.566
0.0481393	226.216
0.0484172	226.868
0.0486968	227.522
0.0489779	228.178
0.0492606	228.836
0.049545	229.495
0.049831	230.157
0.0501187	230.82
0.0504081	231.485
0.0506991	232.153
0.0509918	232.822
0.0512861	233.493
0.0515822	234.166
0.05188	234.841
0.0521795	235.518
0.0524807	236.197
0.0527837	236.877
0.0530884	237.56
0.0533949	238.245
0.0537032	238.932
0.0540132	239.62
0.054325	240.311
0.0546387	241.004
0.0549541	241.698
0.0552713	242.395
0.0555904	243.094
0.0559114	243.794
0.0562341	244.497
0.0565588	245.202
0.0568853	245.909
0.0572137	246.617
0.057544	247.328
0.0578762	248.041
0.0582103	248.756
0.0585464	249.473
0.0588844	250.192
0.0592243	250.913
0.0595662	251.637
0.0599101	252.362
0.060256	253.089
0.0606038	253.819
0.0609537	254.55
0.0613056	255.284
0.0616595	256.02
0.0620155	256.758
0.0623735	257.498
0.0627336	258.24
0.0630957	258.984
0.06346	259.731
0.0638263	260.48
0.0641948	261.23
0.0645654	261.983
0.0649382	262.738
0.0653131	263.496
0.0656901	264.255
0.0660693	265.017
0.0664508	265.781
0.0668344	266.547
0.0672202	267.315
0.0676083	268.086
0.0679986	268.858
0.0683912	269.633
0.068786	270.411
0.0691831	271.19
0.0695825	271.972
0.0699842	272.756
0.0703882	273.542
0.0707946	274.33
0.0712033	275.121
0.0716143	275.914
0.0720278	276.709
0.0724436	277.507
0.0728618	278.307
0.0732825	279.109
0.0737055	279.913
0.074131	280.72
0.074559	281.529
0.0749894	282.341
0.0754223	283.155
0.0758578	283.971
0.0762957	284.789
0.0767361	285.61
0.0771792	286.433
0.0776247	287.259
0.0780728	288.087
0.0785236	288.917
0.0789769	289.75
0.0794328	290.585
0.0798914	291.423
0.0803526	292.263
0.0808165	293.105
0.0812831	293.95
0.0817523	294.797
0.0822243	295.647
0.082699	296.499
0.0831764	297.354
0.0836566	298.211
0.0841395	299.071
0.0846253	299.933
0.0851138	300.797
0.0856052	301.664
0.0860994	302.534
0.0865964	303.406
0.0870964	304.28
0.0875992	305.157
0.0881049	306.037
0.0886135	306.919
0.0891251	307.804
0.0896396	308.691
0.0901571	309.581
0.0906776	310.473
0.0912011	311.368
0.0917276	312.265
0.0922571	313.165
0.0927897	314.068
0.0933254	314.973
0.0938642	315.881
0.0944061	316.792
0.0949511	317.705
0.0954993	318.62
0.0960506	319.539
0.0966051	320.46
0.0971628	321.384
0.0977237	322.31
0.0982879	323.239
0.0988553	324.171
0.099426	325.105
0.1	326.042
0.100577	326.982
0.101158	327.924
0.101742	328.87
0.102329	329.817
0.10292	330.768
0.103514	331.722
0.104112	332.678
0.104713	333.637
0.105317	334.598
0.105925	335.563
0.106537	336.53
0.107152	337.5
0.107771	338.473
0.108393	339.448
0.109018	340.427
0.109648	341.408
0.110281	342.392
0.110917	343.379
0.111558	344.369
0.112202	345.361
0.11285	346.357
0.113501	347.355
0.114156	348.356
0.114815	349.36
0.115478	350.367
0.116145	351.377
0.116815	352.39
0.11749	353.406
0.118168	354.424
0.11885	355.446
0.119536	356.471
0.120226	357.498
0.120921	358.528
0.121619	359.562
0.122321	360.598
0.123027	361.638
0.123737	362.68
0.124451	363.725
0.12517	364.774
0.125893	365.825
0.126619	366.88
0.12735	367.937
0.128086	368.998
0.128825	370.061
0.129569	371.128
0.130317	372.198
0.131069	373.271
0.131826	374.346
0.132587	375.425
0.133352	376.508
0.134122	377.593
0.134896	378.681
0.135675	379.773
0.136458	380.867
0.137246	381.965
0.138038	383.066
0.138835	384.17
0.139637	385.278
0.140443	386.388
0.141254	387.502
0.142069	388.619
0.142889	389.739
0.143714	390.862
0.144544	391.989
0.145378	393.119
0.146218	394.252
0.147062	395.388
0.147911	396.528
0.148765	397.671
0.149624	398.817
0.150487	399.967
0.151356	401.119
0.15223	402.276
0.153109	403.435
0.153993	404.598
0.154882	405.764
0.155776	406.934
0.156675	408.107
0.15758	409.283
0.158489	410.463
0.159404	411.646
0.160325	412.832
0.16125	414.022
0.162181	415.216
0.163117	416.412
0.164059	417.613
0.165006	418.816
0.165959	420.024
0.166917	421.234
0.16788	422.448
0.16885	423.666
0.169824	424.887
0.170805	426.112
0.171791	427.34
0.172783	428.572
0.17378	429.807
0.174783	431.046
0.175792	432.288
0.176807	433.535
0.177828	434.784
0.178855	436.037
0.179887	437.294
0.180926	438.555
0.18197	439.819
0.183021	441.086
0.184077	442.358
0.18514	443.633
0.186209	444.912
0.187284	446.194
0.188365	447.48
0.189452	448.77
0.190546	450.063
0.191646	451.361
0.192752	452.662
0.193865	453.966
0.194984	455.275
0.19611	456.587
0.197242	457.903
0.198381	459.223
0.199526	460.547
0.200678	461.874
0.201837	463.205
0.203002	464.541
0.204174	465.88
0.205353	467.222
0.206538	468.569
0.20773	469.92
0.20893	471.274
0.210136	472.633
0.211349	473.995
0.212569	475.361
0.213796	476.731
0.21503	478.105
0.216272	479.484
0.21752	480.866
0.218776	482.252
0.220039	483.642
0.221309	485.036
0.222587	486.434
0.223872	487.836
0.225165	489.242
0.226464	490.652
0.227772	492.066
0.229087	493.485
0.230409	494.907
0.231739	496.334
0.233077	497.764
0.234423	499.199
0.235776	500.638
0.237137	502.081
0.238506	503.528
0.239883	504.979
0.241268	506.435
0.242661	507.895
0.244062	509.359
0.245471	510.827
0.246888	512.299
0.248313	513.776
0.249747	515.257
0.251189	516.742
0.252639	518.231
0.254097	519.725
0.255564	521.223
0.25704	522.725
0.258523	524.232
0.260016	525.743
0.261517	527.259
0.263027	528.778
0.264545	530.303
0.266073	531.831
0.267609	533.364
0.269153	534.901
0.270707	536.443
0.27227	537.989
0.273842	539.54
0.275423	541.095
0.277013	542.655
0.278612	544.219
0.280221	545.788
0.281838	547.361
0.283465	548.938
0.285102	550.521
0.286748	552.108
0.288403	553.699
0.290068	555.295
0.291743	556.895
0.293427	558.501
0.295121	560.11
0.296825	561.725
0.298538	563.344
0.300262	564.968
0.301995	566.596
0.303739	568.229
0.305492	569.867
0.307256	571.51
0.30903	573.157
0.310814	574.809
0.312608	576.466
0.314413	578.128
0.316228	579.794
0.318053	581.465
0.31989	583.141
0.321736	584.822
0.323594	586.508
0.325462	588.198
0.327341	589.894
0.32923	591.594
0.331131	593.299
0.333043	595.009
0.334965	596.724
0.336899	598.444
0.338844	600.169
0.3408	601.899
0.342768	603.634
0.344747	605.374
0.346737	607.119
0.348739	608.869
0.350752	610.624
0.352777	612.384
0.354813	614.149
0.356862	615.919
0.358922	617.694
0.360994	619.475
0.363078	621.26
0.365174	623.051
0.367282	624.847
0.369403	626.648
0.371535	628.454
0.37368	630.266
0.375837	632.082
0.378007	633.904
0.380189	635.731
0.382384	637.564
0.384592	639.402
0.386812	641.245
0.389045	643.093
0.391291	644.946
0.39355	646.805
0.395822	648.67
0.398107	650.54
0.400405	652.415
0.402717	654.295
0.405042	656.181
0.40738	658.072
0.409732	659.969
0.412098	661.871
0.414477	663.779
0.416869	665.693
0.419276	667.611
0.421697	669.536
0.424131	671.465
0.42658	673.401
0.429042	675.342
0.431519	677.288
0.43401	679.241
0.436516	681.198
0.439036	683.162
0.44157	685.131
0.44412	687.106
0.446684	689.086
0.449262	691.073
0.451856	693.065
0.454465	695.062
0.457088	697.066
0.459727	699.075
0.462381	701.09
0.46505	703.111
0.467735	705.137
0.470435	707.17
0.473151	709.208
0.475883	711.252
0.47863	713.302
0.481393	715.358
0.484172	717.42
0.486968	719.488
0.489779	721.562
0.492606	723.642
0.49545	725.728
0.49831	727.819
0.501187	729.917
0.504081	732.021
0.506991	734.131
0.509918	736.247
0.512861	738.369
0.515822	740.498
0.5188	742.632
0.521795	744.773
0.524807	746.919
0.527837	749.072
0.530884	751.231
0.533949	753.397
0.537032	755.568
0.540132	757.746
0.54325	759.93
0.546387	762.121
0.549541	764.317
0.552713	766.52
0.555904	768.73
0.559114	770.946
0.562341	773.168
0.565588	775.396
0.568853	777.631
0.572137	779.873
0.57544	782.121
0.578762	784.375
0.582103	786.636
0.585464	788.903
0.588844	791.177
0.592243	793.458
0.595662	795.745
0.599101	798.038
0.60256	800.338
0.606038	802.645
0.609537	804.959
