Stopping power dEdx from Ionisation for alpha Z = 2 in G4_Si, process name: ionIoni
E [MeV]	dEdx [MeV/mm]
0.001	11.0256
0.00100577	11.0631
0.00101158	11.1009
0.00101742	11.1389
0.00102329	11.1772
0.0010292	11.2157
0.00103514	11.2545
0.00104112	11.2935
0.00104713	11.3328
0.00105317	11.3724
0.00105925	11.4122
0.00106537	11.4523
0.00107152	11.4927
0.00107771	11.5333
0.00108393	11.5742
0.00109018	11.6153
0.00109648	11.6568
0.00110281	11.6985
0.00110917	11.7405
0.00111558	11.7827
0.00112202	11.8252
0.0011285	11.8681
0.00113501	11.9111
0.00114156	11.9545
0.00114815	11.9982
0.00115478	12.0421
0.00116145	12.0863
0.00116815	12.1308
0.0011749	12.1756
0.00118168	12.2207
0.0011885	12.2661
0.00119536	12.3118
0.00120226	12.3578
0.00120921	12.404
0.00121619	12.4506
0.00122321	12.4974
0.00123027	12.5446
0.00123737	12.592
0.00124451	12.6398
0.0012517	12.6879
0.00125893	12.7362
0.00126619	12.7849
0.0012735	12.8339
0.00128086	12.8831
0.00128825	12.9327
0.00129569	12.9826
0.00130317	13.0329
0.00131069	13.0834
0.00131826	13.1342
0.00132587	13.1854
0.00133352	13.2369
0.00134122	13.2887
0.00134896	13.3408
0.00135675	13.3932
0.00136458	13.446
0.00137246	13.499
0.00138038	13.5524
0.00138835	13.6062
0.00139637	13.6602
0.00140443	13.7146
0.00141254	13.7693
0.00142069	13.8243
0.00142889	13.8797
0.00143714	13.9354
0.00144544	13.9914
0.00145378	14.0477
0.00146218	14.1044
0.00147062	14.1614
0.00147911	14.2188
0.00148765	14.2764
0.00149624	14.3345
0.00150487	14.3892
0.00151356	14.4414
0.0015223	14.4939
0.00153109	14.5467
0.00153993	14.5998
0.00154882	14.6532
0.00155776	14.7069
0.00156675	14.7609
0.0015758	14.8152
0.00158489	14.8699
0.00159404	14.9248
0.00160325	14.98
0.0016125	15.0355
0.00162181	15.0913
0.00163117	15.1474
0.00164059	15.2038
0.00165006	15.2605
0.00165959	15.3175
0.00166917	15.3749
0.0016788	15.4325
0.0016885	15.4904
0.00169824	15.5486
0.00170805	15.6071
0.00171791	15.6659
0.00172783	15.7249
0.0017378	15.7843
0.00174783	15.844
0.00175792	15.904
0.00176807	15.9642
0.00177828	16.0248
0.00178855	16.0856
0.00179887	16.1467
0.00180926	16.2082
0.0018197	16.2699
0.00183021	16.3318
0.00184077	16.3941
0.0018514	16.4566
0.00186209	16.5194
0.00187284	16.5825
0.00188365	16.6459
0.00189452	16.7095
0.00190546	16.7734
0.00191646	16.8376
0.00192752	16.9021
0.00193865	16.9668
0.00194984	17.0317
0.0019611	17.0969
0.00197242	17.1624
0.00198381	17.2281
0.00199526	17.2941
0.00200678	17.3597
0.00201837	17.425
0.00203002	17.4907
0.00204174	17.5565
0.00205353	17.6226
0.00206538	17.6889
0.0020773	17.7555
0.0020893	17.8223
0.00210136	17.8894
0.00211349	17.9567
0.00212569	18.0242
0.00213796	18.092
0.0021503	18.1601
0.00216272	18.2284
0.0021752	18.2969
0.00218776	18.3657
0.00220039	18.4348
0.00221309	18.5041
0.00222587	18.5736
0.00223872	18.6434
0.00225165	18.7135
0.00226464	18.7838
0.00227772	18.8544
0.00229087	18.9253
0.00230409	18.9964
0.00231739	19.0677
0.00233077	19.1394
0.00234423	19.2113
0.00235776	19.2834
0.00237137	19.3559
0.00238506	19.4286
0.00239883	19.5016
0.00241268	19.5748
0.00242661	19.6484
0.00244062	19.7222
0.00245471	19.7963
0.00246888	19.8707
0.00248313	19.9453
0.00249747	20.0203
0.00251189	20.0954
0.00252639	20.1708
0.00254097	20.2465
0.00255564	20.3225
0.0025704	20.3988
0.00258523	20.4754
0.00260016	20.5523
0.00261517	20.6295
0.00263027	20.7069
0.00264545	20.7847
0.00266073	20.8627
0.00267609	20.9411
0.00269153	21.0197
0.00270707	21.0987
0.0027227	21.1779
0.00273842	21.2575
0.00275423	21.3373
0.00277013	21.4175
0.00278612	21.4979
0.00280221	21.5787
0.00281838	21.6598
0.00283465	21.7411
0.00285102	21.8228
0.00286748	21.9048
0.00288403	21.9871
0.00290068	22.0697
0.00291743	22.1527
0.00293427	22.2359
0.00295121	22.3195
0.00296825	22.4033
0.00298538	22.4875
0.00300262	22.572
0.00301995	22.6569
0.00303739	22.7421
0.00305492	22.8276
0.00307256	22.9134
0.0030903	22.9995
0.00310814	23.086
0.00312608	23.1728
0.00314413	23.2599
0.00316228	23.3474
0.00318053	23.4352
0.0031989	23.5233
0.00321736	23.6117
0.00323594	23.7005
0.00325462	23.7896
0.00327341	23.8791
0.0032923	23.9689
0.00331131	24.059
0.00333043	24.1495
0.00334965	24.2403
0.00336899	24.3314
0.00338844	24.4229
0.003408	24.5148
0.00342768	24.6069
0.00344747	24.6995
0.00346737	24.7923
0.00348739	24.8856
0.00350752	24.9792
0.00352777	25.0731
0.00354813	25.1674
0.00356862	25.262
0.00358922	25.357
0.00360994	25.4524
0.00363078	25.5481
0.00365174	25.6442
0.00367282	25.7407
0.00369403	25.8375
0.00371535	25.9347
0.0037368	26.0322
0.00375837	26.1302
0.00378007	26.2285
0.00380189	26.3271
0.00382384	26.4262
0.00384592	26.5257
0.00386812	26.6255
0.00389045	26.7257
0.00391291	26.8263
0.0039355	26.9273
0.00395822	27.0286
0.00398107	27.1304
0.00400405	27.226
0.00402717	27.2997
0.00405042	27.4026
0.0040738	27.5058
0.00409732	27.6095
0.00412098	27.7136
0.00414477	27.8181
0.00416869	27.923
0.00419276	28.0283
0.00421697	28.1339
0.00424131	28.24
0.0042658	28.3465
0.00429042	28.4534
0.00431519	28.5607
0.0043401	28.6684
0.00436516	28.7765
0.00439036	28.885
0.0044157	28.9939
0.0044412	29.1032
0.00446684	29.2129
0.00449262	29.323
0.00451856	29.4335
0.00454465	29.5445
0.00457088	29.6558
0.00459727	29.7675
0.00462381	29.8797
0.0046505	29.9922
0.00467735	30.1052
0.00470435	30.2186
0.00473151	30.3323
0.00475883	30.4465
0.0047863	30.5611
0.00481393	30.6761
0.00484172	30.7915
0.00486968	30.9073
0.00489779	31.0235
0.00492606	31.1402
0.0049545	31.2572
0.0049831	31.3747
0.00501187	31.4925
0.00504081	31.6108
0.00506991	31.7296
0.00509918	31.8487
0.00512861	31.9683
0.00515822	32.0882
0.005188	32.2086
0.00521795	32.3295
0.00524807	32.4508
0.00527837	32.5725
0.00530884	32.6946
0.00533949	32.8172
0.00537032	32.9403
0.00540132	33.0638
0.0054325	33.1877
0.00546387	33.3121
0.00549541	33.437
0.00552713	33.5624
0.00555904	33.6882
0.00559114	33.8145
0.00562341	33.9413
0.00565588	34.0686
0.00568853	34.1964
0.00572137	34.3247
0.0057544	34.4535
0.00578762	34.5829
0.00582103	34.7127
0.00585464	34.8431
0.00588844	34.974
0.00592243	35.1054
0.00595662	35.2374
0.00599101	35.37
0.0060256	35.5031
0.00606038	35.6368
0.00609537	35.771
0.00613056	35.9058
0.00616595	36.0411
0.00620155	36.177
0.00623735	36.3134
0.00627336	36.4504
0.00630957	36.5879
0.006346	36.726
0.00638263	36.8646
0.00641948	37.0037
0.00645654	37.1433
0.00649382	37.2834
0.00653131	37.4241
0.00656901	37.5652
0.00660693	37.7069
0.00664508	37.849
0.00668344	37.9917
0.00672202	38.1348
0.00676083	38.2784
0.00679986	38.4224
0.00683912	38.567
0.0068786	38.7119
0.00691831	38.8574
0.00695825	39.0032
0.00699842	39.1495
0.00703882	39.2963
0.00707946	39.4435
0.00712033	39.5911
0.00716143	39.7391
0.00720278	39.8877
0.00724436	40.0367
0.00728618	40.1862
0.00732825	40.3363
0.00737055	40.4868
0.0074131	40.6379
0.0074559	40.7896
0.00749894	40.9418
0.00754223	41.0946
0.00758578	41.248
0.00762957	41.402
0.00767361	41.5567
0.00771792	41.712
0.00776247	41.8679
0.00780728	42.0246
0.00785236	42.182
0.00789769	42.3401
0.00794328	42.4989
0.00798914	42.6586
0.00803526	42.819
0.00808165	42.9802
0.00812831	43.1422
0.00817523	43.3049
0.00822243	43.4684
0.0082699	43.6327
0.00831764	43.7976
0.00836566	43.9633
0.00841395	44.1297
0.00846253	44.2967
0.00851138	44.4644
0.00856052	44.6328
0.00860994	44.8017
0.00865964	44.9713
0.00870964	45.1415
0.00875992	45.3122
0.00881049	45.4834
0.00886135	45.6552
0.00891251	45.8275
0.00896396	46.0003
0.00901571	46.1735
0.00906776	46.3471
0.00912011	46.5212
0.00917276	46.6958
0.00922571	46.8708
0.00927897	47.0464
0.00933254	47.2224
0.00938642	47.399
0.00944061	47.5762
0.00949511	47.7539
0.00954993	47.9322
0.00960506	48.1112
0.00966051	48.2907
0.00971628	48.4709
0.00977237	48.6518
0.00982879	48.8334
0.00988553	49.0157
0.0099426	49.1988
0.01	49.3826
0.0100577	49.5673
0.0101158	49.7528
0.0101742	49.939
0.0102329	50.1261
0.010292	50.314
0.0103514	50.5027
0.0104112	50.6921
0.0104713	50.8824
0.0105317	51.0735
0.0105925	51.2653
0.0106537	51.458
0.0107152	51.6514
0.0107771	51.8457
0.0108393	52.0407
0.0109018	52.2365
0.0109648	52.4331
0.0110281	52.6305
0.0110917	52.8287
0.0111558	53.0277
0.0112202	53.2275
0.011285	53.428
0.0113501	53.6293
0.0114156	53.8314
0.0114815	54.0343
0.0115478	54.2379
0.0116145	54.4423
0.0116815	54.6475
0.011749	54.8534
0.0118168	55.0601
0.011885	55.2676
0.0119536	55.4758
0.0120226	55.6848
0.0120921	55.8945
0.0121619	56.105
0.0122321	56.3162
0.0123027	56.5281
0.0123737	56.7408
0.0124451	56.9542
0.012517	57.1683
0.0125893	57.3829
0.0126619	57.5983
0.012735	57.8144
0.0128086	58.0313
0.0128825	58.2488
0.0129569	58.4672
0.0130317	58.6863
0.0131069	58.9061
0.0131826	59.1267
0.0132587	59.3481
0.0133352	59.5703
0.0134122	59.7932
0.0134896	60.017
0.0135675	60.2415
0.0136458	60.4668
0.0137246	60.693
0.0138038	60.92
0.0138835	61.1478
0.0139637	61.3765
0.0140443	61.606
0.0141254	61.8364
0.0142069	62.0676
0.0142889	62.2997
0.0143714	62.5327
0.0144544	62.7666
0.0145378	63.0014
0.0146218	63.2371
0.0147062	63.4738
0.0147911	63.7114
0.0148765	63.9499
0.0149624	64.1894
0.0150487	64.4299
0.0151356	64.6715
0.015223	64.914
0.0153109	65.1575
0.0153993	65.402
0.0154882	65.6475
0.0155776	65.8939
0.0156675	66.1413
0.015758	66.3896
0.0158489	66.6389
0.0159404	66.8891
0.0160325	67.1403
0.016125	67.3924
0.0162181	67.6455
0.0163117	67.8995
0.0164059	68.1544
0.0165006	68.4102
0.0165959	68.667
0.0166917	68.9246
0.016788	69.1832
0.016885	69.4426
0.0169824	69.703
0.0170805	69.9642
0.0171791	70.2263
0.0172783	70.4893
0.017378	70.7531
0.0174783	71.0178
0.0175792	71.2834
0.0176807	71.5497
0.0177828	71.817
0.0178855	72.0851
0.0179887	72.3541
0.0180926	72.624
0.018197	72.8948
0.0183021	73.1666
0.0184077	73.4393
0.018514	73.7129
0.0186209	73.9875
0.0187284	74.2631
0.0188365	74.5397
0.0189452	74.8173
0.0190546	75.0959
0.0191646	75.3756
0.0192752	75.6563
0.0193865	75.9381
0.0194984	76.221
0.019611	76.5051
0.0197242	76.7903
0.0198381	77.0766
0.0199526	77.3641
0.0200678	77.6529
0.0201837	77.9428
0.0203002	78.234
0.0204174	78.5263
0.0205353	78.8199
0.0206538	79.1146
0.020773	79.4106
0.020893	79.7077
0.0210136	80.006
0.0211349	80.3054
0.0212569	80.6061
0.0213796	80.9078
0.021503	81.2107
0.0216272	81.5148
0.021752	81.82
0.0218776	82.1263
0.0220039	82.4338
0.0221309	82.7423
0.0222587	83.0519
0.0223872	83.3626
0.0225165	83.6744
0.0226464	83.9873
0.0227772	84.3012
0.0229087	84.6162
0.0230409	84.9323
0.0231739	85.2495
0.0233077	85.5677
0.0234423	85.887
0.0235776	86.2074
0.0237137	86.5289
0.0238506	86.8515
0.0239883	87.1752
0.0241268	87.5
0.0242661	87.8258
0.0244062	88.1528
0.0245471	88.4809
0.0246888	88.8101
0.0248313	89.1405
0.0249747	89.4719
0.0251189	89.8045
0.0252639	90.1382
0.0254097	90.473
0.0255564	90.809
0.025704	91.1462
0.0258523	91.4845
0.0260016	91.824
0.0261517	92.1647
0.0263027	92.5067
0.0264545	92.8498
0.0266073	93.1942
0.0267609	93.5398
0.0269153	93.8867
0.0270707	94.2348
0.027227	94.5843
0.0273842	94.935
0.0275423	95.2871
0.0277013	95.6404
0.0278612	95.9952
0.0280221	96.3512
0.0281838	96.7085
0.0283465	97.0672
0.0285102	97.4272
0.0286748	97.7885
0.0288403	98.1511
0.0290068	98.515
0.0291743	98.8802
0.0293427	99.2467
0.0295121	99.6145
0.0296825	99.9835
0.0298538	100.354
0.0300262	100.726
0.0301995	101.099
0.0303739	101.473
0.0305492	101.848
0.0307256	102.225
0.030903	102.603
0.0310814	102.983
0.0312608	103.363
0.0314413	103.745
0.0316228	104.129
0.0318053	104.513
0.031989	104.899
0.0321736	105.287
0.0323594	105.675
0.0325462	106.065
0.0327341	106.457
0.032923	106.849
0.0331131	107.244
0.0333043	107.639
0.0334965	108.036
0.0336899	108.434
0.0338844	108.834
0.03408	109.235
0.0342768	109.637
0.0344747	110.041
0.0346737	110.446
0.0348739	110.853
0.0350752	111.261
0.0352777	111.67
0.0354813	112.081
0.0356862	112.493
0.0358922	112.907
0.0360994	113.322
0.0363078	113.739
0.0365174	114.157
0.0367282	114.577
0.0369403	114.997
0.0371535	115.42
0.037368	115.844
0.0375837	116.269
0.0378007	116.696
0.0380189	117.124
0.0382384	117.554
0.0384592	117.985
0.0386812	118.418
0.0389045	118.852
0.0391291	119.287
0.039355	119.724
0.0395822	120.163
0.0398107	120.602
0.0400405	121.044
0.0402717	121.487
0.0405042	121.931
0.040738	122.377
0.0409732	122.824
0.0412098	123.273
0.0414477	123.723
0.0416869	124.174
0.0419276	124.627
0.0421697	125.082
0.0424131	125.538
0.042658	125.995
0.0429042	126.454
0.0431519	126.914
0.043401	127.376
0.0436516	127.839
0.0439036	128.304
0.044157	128.77
0.044412	129.237
0.0446684	129.706
0.0449262	130.176
0.0451856	130.648
0.0454465	131.121
0.0457088	131.596
0.0459727	132.072
0.0462381	132.549
0.046505	133.028
0.0467735	133.508
0.0470435	133.99
0.0473151	134.474
0.0475883	134.959
0.047863	135.445
0.0481393	135.934
0.0484172	136.423
0.0486968	136.914
0.0489779	137.407
0.0492606	137.902
0.049545	138.398
0.049831	138.895
0.0501187	139.394
0.0504081	139.895
0.0506991	140.398
0.0509918	140.902
0.0512861	141.408
0.0515822	141.915
0.05188	142.424
0.0521795	142.935
0.0524807	143.447
0.0527837	143.96
0.0530884	144.475
0.0533949	144.992
0.0537032	145.51
0.0540132	146.029
0.054325	146.549
0.0546387	147.071
0.0549541	147.595
0.0552713	148.119
0.0555904	148.645
0.0559114	149.172
0.0562341	149.701
0.0565588	150.231
0.0568853	150.762
0.0572137	151.295
0.057544	151.829
0.0578762	152.365
0.0582103	152.902
0.0585464	153.441
0.0588844	153.982
0.0592243	154.524
0.0595662	155.068
0.0599101	155.614
0.060256	156.161
0.0606038	156.711
0.0609537	157.262
0.0613056	157.814
0.0616595	158.369
0.0620155	158.925
0.0623735	159.482
0.0627336	160.041
0.0630957	160.601
0.06346	161.163
0.0638263	161.726
0.0641948	162.29
0.0645654	162.856
0.0649382	163.422
0.0653131	163.99
0.0656901	164.558
0.0660693	165.128
0.0664508	165.699
0.0668344	166.271
0.0672202	166.845
0.0676083	167.42
0.0679986	167.996
0.0683912	168.574
0.068786	169.154
0.0691831	169.735
0.0695825	170.318
0.0699842	170.903
0.0703882	171.489
0.0707946	172.078
0.0712033	172.668
0.0716143	173.26
0.0720278	173.853
0.0724436	174.448
0.0728618	175.044
0.0732825	175.642
0.0737055	176.24
0.074131	176.84
0.074559	177.44
0.0749894	178.041
0.0754223	178.643
0.0758578	179.245
0.0762957	179.849
0.0767361	180.453
0.0771792	181.058
0.0776247	181.664
0.0780728	182.271
0.0785236	182.88
0.0789769	183.49
0.0794328	184.102
0.0798914	184.715
0.0803526	185.33
0.0808165	185.946
0.0812831	186.564
0.0817523	187.184
0.0822243	187.805
0.082699	188.427
0.0831764	189.05
0.0836566	189.675
0.0841395	190.3
0.0846253	190.926
0.0851138	191.553
0.0856052	192.18
0.0860994	192.808
0.0865964	193.437
0.0870964	194.067
0.0875992	194.697
0.0881049	195.329
0.0886135	195.962
0.0891251	196.596
0.0896396	197.231
0.0901571	197.868
0.0906776	198.507
0.0912011	199.147
0.0917276	199.788
0.0922571	200.43
0.0927897	201.073
0.0933254	201.717
0.0938642	202.362
0.0944061	203.007
0.0949511	203.652
0.0954993	204.297
0.0960506	204.943
0.0966051	205.588
0.0971628	206.233
0.0977237	206.879
0.0982879	207.525
0.0988553	208.171
0.099426	208.818
0.1	209.465
0.100577	210.112
0.101158	210.76
0.101742	211.409
0.102329	212.058
0.10292	212.707
0.103514	213.357
0.104112	214.007
0.104713	214.658
0.105317	215.309
0.105925	215.96
0.106537	216.611
0.107152	217.263
0.107771	217.916
0.108393	218.568
0.109018	219.221
0.109648	219.875
0.110281	220.528
0.110917	221.182
0.111558	221.837
0.112202	222.491
0.11285	223.146
0.113501	223.802
0.114156	224.457
0.114815	225.113
0.115478	225.77
0.116145	226.426
0.116815	227.083
0.11749	227.74
0.118168	228.398
0.11885	229.056
0.119536	229.714
0.120226	230.373
0.120921	231.032
0.121619	231.691
0.122321	232.351
0.123027	233.011
0.123737	233.671
0.124451	234.332
0.12517	234.993
0.125893	235.651
0.126619	236.31
0.12735	236.968
0.128086	237.627
0.128825	238.287
0.129569	238.946
0.130317	239.606
0.131069	240.265
0.131826	240.925
0.132587	241.584
0.133352	242.243
0.134122	242.902
0.134896	243.561
0.135675	244.22
0.136458	244.878
0.137246	245.535
0.138038	246.192
0.138835	246.849
0.139637	247.504
0.140443	248.16
0.141254	248.814
0.142069	249.467
0.142889	250.119
0.143714	250.771
0.144544	251.421
0.145378	252.07
0.146218	252.718
0.147062	253.364
0.147911	254.009
0.148765	254.652
0.149624	255.294
0.150487	255.934
0.151356	256.573
0.15223	257.211
0.153109	257.847
0.153993	258.481
0.154882	259.113
0.155776	259.743
0.156675	260.372
0.15758	260.999
0.158489	261.624
0.159404	262.247
0.160325	262.868
0.16125	263.488
0.162181	264.106
0.163117	264.722
0.164059	265.336
0.165006	265.949
0.165959	266.56
0.166917	267.169
0.16788	267.777
0.16885	268.383
0.169824	268.987
0.170805	269.59
0.171791	270.192
0.172783	270.791
0.17378	271.389
0.174783	271.986
0.175792	272.581
0.176807	273.175
0.177828	273.768
0.178855	274.359
0.179887	274.948
0.180926	275.535
0.18197	276.12
0.183021	276.704
0.184077	277.286
0.18514	277.865
0.186209	278.442
0.187284	279.018
0.188365	279.59
0.189452	280.161
0.190546	280.729
0.191646	281.294
0.192752	281.856
0.193865	282.416
0.194984	282.973
0.19611	283.527
0.197242	284.078
0.198381	284.626
0.199526	285.17
0.200678	285.712
0.201837	286.249
0.203002	286.784
0.204174	287.315
0.205353	287.843
0.206538	288.368
0.20773	288.89
0.20893	289.409
0.210136	289.926
0.211349	290.439
0.212569	290.95
0.213796	291.458
0.21503	291.964
0.216272	292.468
0.21752	292.97
0.218776	293.469
0.220039	293.966
0.221309	294.462
0.222587	294.956
0.223872	295.449
0.225165	295.94
0.226464	296.43
0.227772	296.918
0.229087	297.405
0.230409	297.891
0.231739	298.374
0.233077	298.856
0.234423	299.336
0.235776	299.813
0.237137	300.288
0.238506	300.76
0.239883	301.229
0.241268	301.695
0.242661	302.159
0.244062	302.618
0.245471	303.075
0.246888	303.527
0.248313	303.975
0.249747	304.42
0.251189	304.86
0.252639	305.295
0.254097	305.726
0.255564	306.153
0.25704	306.576
0.258523	306.994
0.260016	307.409
0.261517	307.819
0.263027	308.226
0.264545	308.629
0.266073	309.028
0.267609	309.424
0.269153	309.817
0.270707	310.206
0.27227	310.592
0.273842	310.975
0.275423	311.355
0.277013	311.732
0.278612	312.107
0.280221	312.478
0.281838	312.847
0.283465	313.212
0.285102	313.574
0.286748	313.932
0.288403	314.287
0.290068	314.638
0.291743	314.985
0.293427	315.329
0.295121	315.668
0.296825	316.004
0.298538	316.335
0.300262	316.662
0.301995	316.984
0.303739	317.302
0.305492	317.616
0.307256	317.925
0.30903	318.23
0.310814	318.531
0.312608	318.827
0.314413	319.118
0.316228	319.406
0.318053	319.689
0.31989	319.968
0.321736	320.243
0.323594	320.514
0.325462	320.781
0.327341	321.044
0.32923	321.303
0.331131	321.558
0.333043	321.809
0.334965	322.057
0.336899	322.301
0.338844	322.542
0.3408	322.779
0.342768	323.013
0.344747	323.244
0.346737	323.472
0.348739	323.696
0.350752	323.917
0.352777	324.134
0.354813	324.348
0.356862	324.56
0.358922	324.768
0.360994	324.973
0.363078	325.175
0.365174	325.373
0.367282	325.569
0.369403	325.761
0.371535	325.949
0.37368	326.134
0.375837	326.316
0.378007	326.494
0.380189	326.668
0.382384	326.838
0.384592	327.005
0.386812	327.167
0.389045	327.326
0.391291	327.48
0.39355	327.63
0.395822	327.776
0.398107	327.918
0.400405	328.055
0.402717	328.188
0.405042	328.316
0.40738	328.44
0.409732	328.56
0.412098	328.675
0.414477	328.786
0.416869	328.892
0.419276	328.994
0.421697	329.091
0.424131	329.184
0.42658	329.273
0.429042	329.358
0.431519	329.438
0.43401	329.514
0.436516	329.585
0.439036	329.653
0.44157	329.716
0.44412	329.776
0.446684	329.831
0.449262	329.883
0.451856	329.93
0.454465	329.974
0.457088	330.014
0.459727	330.05
0.462381	330.082
0.46505	330.11
0.467735	330.134
0.470435	330.154
0.473151	330.171
0.475883	330.183
0.47863	330.192
0.481393	330.196
0.484172	330.197
0.486968	330.194
0.489779	330.187
0.492606	330.177
0.49545	330.162
0.49831	330.144
0.501187	330.122
0.504081	330.096
0.506991	330.067
0.509918	330.033
0.512861	329.995
0.515822	329.954
0.5188	329.908
0.521795	329.858
0.524807	329.805
0.527837	329.746
0.530884	329.684
0.533949	329.617
0.537032	329.546
0.540132	329.47
0.54325	329.39
0.546387	329.305
0.549541	329.215
0.552713	329.121
0.555904	329.022
0.559114	328.918
0.562341	328.81
0.565588	328.698
0.568853	328.582
0.572137	328.462
0.57544	328.338
0.578762	328.21
0.582103	328.079
0.585464	327.945
0.588844	327.807
0.592243	327.667
0.595662	327.524
0.599101	327.378
0.60256	327.23
0.606038	327.08
0.609537	326.928
0.613056	326.772
