Stopping power dEdx from Ionisation for alpha Z = 2 in G4_TISSUE_SOFT_ICRP, process name: ionIoni
E [MeV]	dEdx [MeV/mm]
0.001	14.225
0.00100577	14.265
0.00101158	14.3051
0.00101742	14.3453
0.00102329	14.3857
0.0010292	14.4262
0.00103514	14.4668
0.00104112	14.5075
0.00104713	14.5483
0.00105317	14.5892
0.00105925	14.6303
0.00106537	14.6715
0.00107152	14.7128
0.00107771	14.7542
0.00108393	14.7957
0.00109018	14.8374
0.00109648	14.8791
0.00110281	14.921
0.00110917	14.963
0.00111558	15.0052
0.00112202	15.0474
0.0011285	15.0898
0.00113501	15.1323
0.00114156	15.1749
0.00114815	15.2177
0.00115478	15.2605
0.00116145	15.3035
0.00116815	15.3466
0.0011749	15.3899
0.00118168	15.4332
0.0011885	15.4767
0.00119536	15.5203
0.00120226	15.5641
0.00120921	15.608
0.00121619	15.6519
0.00122321	15.6961
0.00123027	15.7403
0.00123737	15.7847
0.00124451	15.8292
0.0012517	15.8738
0.00125893	15.9186
0.00126619	15.9635
0.0012735	16.0085
0.00128086	16.0536
0.00128825	16.0989
0.00129569	16.1443
0.00130317	16.1899
0.00131069	16.2355
0.00131826	16.2814
0.00132587	16.3273
0.00133352	16.3734
0.00134122	16.4196
0.00134896	16.4659
0.00135675	16.5124
0.00136458	16.559
0.00137246	16.6057
0.00138038	16.6526
0.00138835	16.6996
0.00139637	16.7467
0.00140443	16.794
0.00141254	16.8414
0.00142069	16.889
0.00142889	16.9367
0.00143714	16.9845
0.00144544	17.0325
0.00145378	17.0806
0.00146218	17.1288
0.00147062	17.1772
0.00147911	17.2257
0.00148765	17.2744
0.00149624	17.3232
0.00150487	17.3722
0.00151356	17.4212
0.0015223	17.4705
0.00153109	17.5198
0.00153993	17.5694
0.00154882	17.619
0.00155776	17.6688
0.00156675	17.7188
0.0015758	17.7689
0.00158489	17.8191
0.00159404	17.8695
0.00160325	17.92
0.0016125	17.9707
0.00162181	18.0215
0.00163117	18.0725
0.00164059	18.1236
0.00165006	18.1749
0.00165959	18.2263
0.00166917	18.2778
0.0016788	18.3295
0.0016885	18.3814
0.00169824	18.4334
0.00170805	18.4856
0.00171791	18.5379
0.00172783	18.5903
0.0017378	18.643
0.00174783	18.6957
0.00175792	18.7486
0.00176807	18.8017
0.00177828	18.8549
0.00178855	18.9083
0.00179887	18.9619
0.00180926	19.0156
0.0018197	19.0694
0.00183021	19.1234
0.00184077	19.1776
0.0018514	19.2319
0.00186209	19.2864
0.00187284	19.341
0.00188365	19.3958
0.00189452	19.4507
0.00190546	19.5058
0.00191646	19.5611
0.00192752	19.6165
0.00193865	19.6721
0.00194984	19.7279
0.0019611	19.7838
0.00197242	19.8399
0.00198381	19.8961
0.00199526	19.9525
0.00200678	20.0091
0.00201837	20.0658
0.00203002	20.1227
0.00204174	20.1798
0.00205353	20.237
0.00206538	20.2944
0.0020773	20.352
0.0020893	20.4097
0.00210136	20.4676
0.00211349	20.5256
0.00212569	20.5839
0.00213796	20.6423
0.0021503	20.7008
0.00216272	20.7596
0.0021752	20.8185
0.00218776	20.8776
0.00220039	20.9368
0.00221309	20.9962
0.00222587	21.0558
0.00223872	21.1156
0.00225165	21.1756
0.00226464	21.2357
0.00227772	21.296
0.00229087	21.3564
0.00230409	21.4171
0.00231739	21.4779
0.00233077	21.5389
0.00234423	21.6001
0.00235776	21.6614
0.00237137	21.723
0.00238506	21.7847
0.00239883	21.8466
0.00241268	21.9086
0.00242661	21.9709
0.00244062	22.0333
0.00245471	22.0959
0.00246888	22.1587
0.00248313	22.2217
0.00249747	22.2849
0.00251189	22.3482
0.00252639	22.4118
0.00254097	22.4755
0.00255564	22.5394
0.0025704	22.6035
0.00258523	22.6677
0.00260016	22.7322
0.00261517	22.7968
0.00263027	22.8617
0.00264545	22.9267
0.00266073	22.9919
0.00267609	23.0573
0.00269153	23.1229
0.00270707	23.1887
0.0027227	23.2547
0.00273842	23.3209
0.00275423	23.3872
0.00277013	23.4538
0.00278612	23.5205
0.00280221	23.5875
0.00281838	23.6546
0.00283465	23.722
0.00285102	23.7895
0.00286748	23.8572
0.00288403	23.9252
0.00290068	23.9933
0.00291743	24.0616
0.00293427	24.1301
0.00295121	24.1989
0.00296825	24.2678
0.00298538	24.3369
0.00300262	24.4062
0.00301995	24.4758
0.00303739	24.5455
0.00305492	24.6154
0.00307256	24.6856
0.0030903	24.7559
0.00310814	24.8265
0.00312608	24.8972
0.00314413	24.9682
0.00316228	25.0394
0.00318053	25.1107
0.0031989	25.1823
0.00321736	25.2541
0.00323594	25.3261
0.00325462	25.3983
0.00327341	25.4708
0.0032923	25.5434
0.00331131	25.6163
0.00333043	25.6893
0.00334965	25.7626
0.00336899	25.8361
0.00338844	25.9098
0.003408	25.9837
0.00342768	26.0579
0.00344747	26.1322
0.00346737	26.2068
0.00348739	26.2816
0.00350752	26.3566
0.00352777	26.4318
0.00354813	26.5073
0.00356862	26.5829
0.00358922	26.6588
0.00360994	26.7349
0.00363078	26.8113
0.00365174	26.8878
0.00367282	26.9646
0.00369403	27.0416
0.00371535	27.1188
0.0037368	27.1963
0.00375837	27.274
0.00378007	27.3519
0.00380189	27.43
0.00382384	27.5084
0.00384592	27.587
0.00386812	27.6658
0.00389045	27.7449
0.00391291	27.8242
0.0039355	27.9037
0.00395822	27.9834
0.00398107	28.0634
0.00400405	28.1368
0.00402717	28.1864
0.00405042	28.2672
0.0040738	28.3483
0.00409732	28.4295
0.00412098	28.5111
0.00414477	28.5928
0.00416869	28.6748
0.00419276	28.757
0.00421697	28.8395
0.00424131	28.9222
0.0042658	29.0051
0.00429042	29.0883
0.00431519	29.1717
0.0043401	29.2554
0.00436516	29.3393
0.00439036	29.4235
0.0044157	29.5079
0.0044412	29.5925
0.00446684	29.6774
0.00449262	29.7626
0.00451856	29.848
0.00454465	29.9336
0.00457088	30.0195
0.00459727	30.1056
0.00462381	30.192
0.0046505	30.2786
0.00467735	30.3655
0.00470435	30.4527
0.00473151	30.5401
0.00475883	30.6277
0.0047863	30.7157
0.00481393	30.8038
0.00484172	30.8923
0.00486968	30.9809
0.00489779	31.0699
0.00492606	31.1591
0.0049545	31.2486
0.0049831	31.3383
0.00501187	31.4283
0.00504081	31.5185
0.00506991	31.609
0.00509918	31.6998
0.00512861	31.7909
0.00515822	31.8822
0.005188	31.9737
0.00521795	32.0656
0.00524807	32.1577
0.00527837	32.2501
0.00530884	32.3428
0.00533949	32.4357
0.00537032	32.5289
0.00540132	32.6224
0.0054325	32.7161
0.00546387	32.8101
0.00549541	32.9044
0.00552713	32.999
0.00555904	33.0938
0.00559114	33.189
0.00562341	33.2844
0.00565588	33.3801
0.00568853	33.476
0.00572137	33.5723
0.0057544	33.6688
0.00578762	33.7656
0.00582103	33.8627
0.00585464	33.9601
0.00588844	34.0578
0.00592243	34.1557
0.00595662	34.254
0.00599101	34.3525
0.0060256	34.4513
0.00606038	34.5505
0.00609537	34.6499
0.00613056	34.7496
0.00616595	34.8495
0.00620155	34.9498
0.00623735	35.0504
0.00627336	35.1513
0.00630957	35.2524
0.006346	35.3539
0.00638263	35.4557
0.00641948	35.5577
0.00645654	35.6601
0.00649382	35.7628
0.00653131	35.8657
0.00656901	35.969
0.00660693	36.0726
0.00664508	36.1765
0.00668344	36.2807
0.00672202	36.3851
0.00676083	36.4899
0.00679986	36.595
0.00683912	36.7005
0.0068786	36.8062
0.00691831	36.9122
0.00695825	37.0186
0.00699842	37.1252
0.00703882	37.2322
0.00707946	37.3395
0.00712033	37.4471
0.00716143	37.555
0.00720278	37.6633
0.00724436	37.7719
0.00728618	37.8807
0.00732825	37.9899
0.00737055	38.0995
0.0074131	38.2093
0.0074559	38.3195
0.00749894	38.43
0.00754223	38.5408
0.00758578	38.652
0.00762957	38.7634
0.00767361	38.8752
0.00771792	38.9874
0.00776247	39.0998
0.00780728	39.2126
0.00785236	39.3258
0.00789769	39.4392
0.00794328	39.553
0.00798914	39.6672
0.00803526	39.7816
0.00808165	39.8964
0.00812831	40.0116
0.00817523	40.1271
0.00822243	40.2429
0.0082699	40.3591
0.00831764	40.4756
0.00836566	40.5924
0.00841395	40.7096
0.00846253	40.8272
0.00851138	40.9451
0.00856052	41.0633
0.00860994	41.1819
0.00865964	41.3008
0.00870964	41.4201
0.00875992	41.5398
0.00881049	41.6598
0.00886135	41.7801
0.00891251	41.9008
0.00896396	42.0219
0.00901571	42.1433
0.00906776	42.2651
0.00912011	42.3872
0.00917276	42.5097
0.00922571	42.6326
0.00927897	42.7558
0.00933254	42.8794
0.00938642	43.0034
0.00944061	43.1277
0.00949511	43.2524
0.00954993	43.3774
0.00960506	43.5029
0.00966051	43.6287
0.00971628	43.7548
0.00977237	43.8814
0.00982879	44.0083
0.00988553	44.1356
0.0099426	44.2632
0.01	44.3913
0.0100577	44.5197
0.0101158	44.6485
0.0101742	44.7777
0.0102329	44.9072
0.010292	45.0372
0.0103514	45.1675
0.0104112	45.2982
0.0104713	45.4293
0.0105317	45.5608
0.0105925	45.6927
0.0106537	45.825
0.0107152	45.9576
0.0107771	46.0907
0.0108393	46.2241
0.0109018	46.358
0.0109648	46.4922
0.0110281	46.6269
0.0110917	46.7619
0.0111558	46.8973
0.0112202	47.0332
0.011285	47.1694
0.0113501	47.306
0.0114156	47.4431
0.0114815	47.5805
0.0115478	47.7184
0.0116145	47.8566
0.0116815	47.9953
0.011749	48.1344
0.0118168	48.2739
0.011885	48.4138
0.0119536	48.5541
0.0120226	48.6948
0.0120921	48.836
0.0121619	48.9775
0.0122321	49.1195
0.0123027	49.2619
0.0123737	49.4048
0.0124451	49.548
0.012517	49.6917
0.0125893	49.8358
0.0126619	49.9803
0.012735	50.1253
0.0128086	50.2706
0.0128825	50.4164
0.0129569	50.5627
0.0130317	50.7094
0.0131069	50.8565
0.0131826	51.004
0.0132587	51.152
0.0133352	51.3004
0.0134122	51.4493
0.0134896	51.5986
0.0135675	51.7483
0.0136458	51.8985
0.0137246	52.0491
0.0138038	52.2002
0.0138835	52.3517
0.0139637	52.5037
0.0140443	52.6561
0.0141254	52.809
0.0142069	52.9623
0.0142889	53.1161
0.0143714	53.2703
0.0144544	53.425
0.0145378	53.5801
0.0146218	53.7357
0.0147062	53.8918
0.0147911	54.0483
0.0148765	54.2053
0.0149624	54.3627
0.0150487	54.5207
0.0151356	54.6791
0.015223	54.8379
0.0153109	54.9972
0.0153993	55.157
0.0154882	55.3173
0.0155776	55.478
0.0156675	55.6392
0.015758	55.8009
0.0158489	55.9631
0.0159404	56.1258
0.0160325	56.2889
0.016125	56.4525
0.0162181	56.6166
0.0163117	56.7812
0.0164059	56.9463
0.0165006	57.1118
0.0165959	57.2779
0.0166917	57.4444
0.016788	57.6114
0.016885	57.779
0.0169824	57.947
0.0170805	58.1155
0.0171791	58.2845
0.0172783	58.454
0.017378	58.6241
0.0174783	58.7946
0.0175792	58.9656
0.0176807	59.1371
0.0177828	59.3092
0.0178855	59.4817
0.0179887	59.6548
0.0180926	59.8283
0.018197	60.0024
0.0183021	60.177
0.0184077	60.3521
0.018514	60.5277
0.0186209	60.7039
0.0187284	60.8805
0.0188365	61.0577
0.0189452	61.2354
0.0190546	61.4137
0.0191646	61.5924
0.0192752	61.7717
0.0193865	61.9515
0.0194984	62.1319
0.019611	62.3128
0.0197242	62.4942
0.0198381	62.6761
0.0199526	62.8586
0.0200678	63.0416
0.0201837	63.2252
0.0203002	63.4093
0.0204174	63.594
0.0205353	63.7792
0.0206538	63.9649
0.020773	64.1512
0.020893	64.338
0.0210136	64.5254
0.0211349	64.7134
0.0212569	64.9019
0.0213796	65.0909
0.021503	65.2805
0.0216272	65.4707
0.021752	65.6614
0.0218776	65.8527
0.0220039	66.0446
0.0221309	66.237
0.0222587	66.43
0.0223872	66.6236
0.0225165	66.8177
0.0226464	67.0124
0.0227772	67.2077
0.0229087	67.4035
0.0230409	67.5999
0.0231739	67.7969
0.0233077	67.9945
0.0234423	68.1927
0.0235776	68.3914
0.0237137	68.5908
0.0238506	68.7907
0.0239883	68.9912
0.0241268	69.1923
0.0242661	69.394
0.0244062	69.5962
0.0245471	69.7991
0.0246888	70.0026
0.0248313	70.2067
0.0249747	70.4113
0.0251189	70.6166
0.0252639	70.8225
0.0254097	71.029
0.0255564	71.236
0.025704	71.4437
0.0258523	71.652
0.0260016	71.861
0.0261517	72.0705
0.0263027	72.2806
0.0264545	72.4914
0.0266073	72.7028
0.0267609	72.9148
0.0269153	73.1274
0.0270707	73.3406
0.027227	73.5545
0.0273842	73.769
0.0275423	73.9841
0.0277013	74.1999
0.0278612	74.4163
0.0280221	74.6333
0.0281838	74.8509
0.0283465	75.0692
0.0285102	75.2882
0.0286748	75.5077
0.0288403	75.7279
0.0290068	75.9488
0.0291743	76.1703
0.0293427	76.3925
0.0295121	76.6153
0.0296825	76.8387
0.0298538	77.0628
0.0300262	77.2876
0.0301995	77.513
0.0303739	77.7391
0.0305492	77.9658
0.0307256	78.1932
0.030903	78.4212
0.0310814	78.65
0.0312608	78.8794
0.0314413	79.1094
0.0316228	79.3401
0.0318053	79.5716
0.031989	79.8036
0.0321736	80.0364
0.0323594	80.2698
0.0325462	80.5039
0.0327341	80.7387
0.032923	80.9742
0.0331131	81.2103
0.0333043	81.4472
0.0334965	81.6847
0.0336899	81.9229
0.0338844	82.1618
0.03408	82.4014
0.0342768	82.6417
0.0344747	82.8827
0.0346737	83.1244
0.0348739	83.3668
0.0350752	83.6099
0.0352777	83.8538
0.0354813	84.0983
0.0356862	84.3435
0.0358922	84.5894
0.0360994	84.8361
0.0363078	85.0834
0.0365174	85.3315
0.0367282	85.5803
0.0369403	85.8298
0.0371535	86.08
0.037368	86.3309
0.0375837	86.5826
0.0378007	86.835
0.0380189	87.0881
0.0382384	87.342
0.0384592	87.5966
0.0386812	87.8519
0.0389045	88.1079
0.0391291	88.3647
0.039355	88.6223
0.0395822	88.8805
0.0398107	89.1395
0.0400405	89.3993
0.0402717	89.6598
0.0405042	89.9211
0.040738	90.1831
0.0409732	90.4458
0.0412098	90.7093
0.0414477	90.9736
0.0416869	91.2386
0.0419276	91.5043
0.0421697	91.7709
0.0424131	92.0382
0.042658	92.3062
0.0429042	92.575
0.0431519	92.8446
0.043401	93.115
0.0436516	93.3861
0.0439036	93.658
0.044157	93.9307
0.044412	94.2041
0.0446684	94.4784
0.0449262	94.7534
0.0451856	95.0292
0.0454465	95.3057
0.0457088	95.5831
0.0459727	95.8612
0.0462381	96.1402
0.046505	96.4199
0.0467735	96.7004
0.0470435	96.9817
0.0473151	97.2638
0.0475883	97.5467
0.047863	97.8304
0.0481393	98.1149
0.0484172	98.4002
0.0486968	98.6863
0.0489779	98.9732
0.0492606	99.2609
0.049545	99.5495
0.049831	99.8388
0.0501187	100.129
0.0504081	100.42
0.0506991	100.712
0.0509918	101.004
0.0512861	101.298
0.0515822	101.592
0.05188	101.887
0.0521795	102.183
0.0524807	102.48
0.0527837	102.777
0.0530884	103.075
0.0533949	103.375
0.0537032	103.675
0.0540132	103.976
0.054325	104.277
0.0546387	104.58
0.0549541	104.883
0.0552713	105.187
0.0555904	105.492
0.0559114	105.798
0.0562341	106.105
0.0565588	106.413
0.0568853	106.721
0.0572137	107.03
0.057544	107.34
0.0578762	107.651
0.0582103	107.963
0.0585464	108.276
0.0588844	108.59
0.0592243	108.904
0.0595662	109.219
0.0599101	109.535
0.060256	109.852
0.0606038	110.17
0.0609537	110.489
0.0613056	110.809
0.0616595	111.129
0.0620155	111.45
0.0623735	111.773
0.0627336	112.096
0.0630957	112.42
0.06346	112.744
0.0638263	113.07
0.0641948	113.397
0.0645654	113.724
0.0649382	114.052
0.0653131	114.382
0.0656901	114.712
0.0660693	115.043
0.0664508	115.375
0.0668344	115.707
0.0672202	116.041
0.0676083	116.375
0.0679986	116.711
0.0683912	117.047
0.068786	117.384
0.0691831	117.722
0.0695825	118.061
0.0699842	118.401
0.0703882	118.742
0.0707946	119.084
0.0712033	119.426
0.0716143	119.77
0.0720278	120.114
0.0724436	120.459
0.0728618	120.806
0.0732825	121.153
0.0737055	121.501
0.074131	121.849
0.074559	122.199
0.0749894	122.55
0.0754223	122.902
0.0758578	123.254
0.0762957	123.607
0.0767361	123.962
0.0771792	124.317
0.0776247	124.673
0.0780728	125.03
0.0785236	125.388
0.0789769	125.747
0.0794328	126.107
0.0798914	126.467
0.0803526	126.829
0.0808165	127.192
0.0812831	127.555
0.0817523	127.919
0.0822243	128.285
0.082699	128.651
0.0831764	129.018
0.0836566	129.386
0.0841395	129.755
0.0846253	130.125
0.0851138	130.495
0.0856052	130.867
0.0860994	131.24
0.0865964	131.613
0.0870964	131.988
0.0875992	132.363
0.0881049	132.739
0.0886135	133.116
0.0891251	133.495
0.0896396	133.874
0.0901571	134.254
0.0906776	134.634
0.0912011	135.016
0.0917276	135.399
0.0922571	135.782
0.0927897	136.167
0.0933254	136.552
0.0938642	136.939
0.0944061	137.326
0.0949511	137.714
0.0954993	138.103
0.0960506	138.493
0.0966051	138.884
0.0971628	139.276
0.0977237	139.669
0.0982879	140.062
0.0988553	140.457
0.099426	140.852
0.1	141.249
0.100577	141.646
0.101158	142.044
0.101742	142.443
0.102329	142.843
0.10292	143.244
0.103514	143.646
0.104112	144.048
0.104713	144.452
0.105317	144.856
0.105925	145.262
0.106537	145.668
0.107152	146.075
0.107771	146.483
0.108393	146.892
0.109018	147.302
0.109648	147.713
0.110281	148.124
0.110917	148.537
0.111558	148.95
0.112202	149.364
0.11285	149.779
0.113501	150.195
0.114156	150.612
0.114815	151.03
0.115478	151.448
0.116145	151.868
0.116815	152.288
0.11749	152.709
0.118168	153.131
0.11885	153.554
0.119536	153.978
0.120226	154.402
0.120921	154.828
0.121619	155.254
0.122321	155.681
0.123027	156.109
0.123737	156.538
0.124451	156.967
0.12517	157.398
0.125893	157.829
0.126619	158.261
0.12735	158.694
0.128086	159.127
0.128825	159.562
0.129569	159.997
0.130317	160.433
0.131069	160.87
0.131826	161.308
0.132587	161.746
0.133352	162.185
0.134122	162.625
0.134896	163.066
0.135675	163.508
0.136458	163.95
0.137246	164.393
0.138038	164.837
0.138835	165.281
0.139637	165.727
0.140443	166.173
0.141254	166.619
0.142069	167.067
0.142889	167.515
0.143714	167.964
0.144544	168.413
0.145378	168.864
0.146218	169.315
0.147062	169.767
0.147911	170.219
0.148765	170.672
0.149624	171.126
0.150487	171.58
0.151356	172.035
0.15223	172.491
0.153109	172.947
0.153993	173.404
0.154882	173.862
0.155776	174.32
0.156675	174.779
0.15758	175.239
0.158489	175.699
0.159404	176.159
0.160325	176.621
0.16125	177.083
0.162181	177.545
0.163117	178.008
0.164059	178.472
0.165006	178.936
0.165959	179.4
0.166917	179.865
0.16788	180.331
0.16885	180.797
0.169824	181.264
0.170805	181.731
0.171791	182.199
0.172783	182.667
0.17378	183.135
0.174783	183.604
0.175792	184.074
0.176807	184.544
0.177828	185.014
0.178855	185.485
0.179887	185.956
0.180926	186.427
0.18197	186.899
0.183021	187.371
0.184077	187.844
0.18514	188.317
0.186209	188.79
0.187284	189.264
0.188365	189.738
0.189452	190.212
0.190546	190.686
0.191646	191.161
0.192752	191.636
0.193865	192.111
0.194984	192.587
0.19611	193.062
0.197242	193.538
0.198381	194.014
0.199526	194.491
0.200678	194.967
0.201837	195.444
0.203002	195.92
0.204174	196.397
0.205353	196.874
0.206538	197.351
0.20773	197.828
0.20893	198.305
0.210136	198.782
0.211349	199.26
0.212569	199.737
0.213796	200.214
0.21503	200.691
0.216272	201.168
0.21752	201.646
0.218776	202.123
0.220039	202.6
0.221309	203.076
0.222587	203.553
0.223872	204.03
0.225165	204.506
0.226464	204.982
0.227772	205.458
0.229087	205.934
0.230409	206.41
0.231739	206.885
0.233077	207.36
0.234423	207.835
0.235776	208.31
0.237137	208.784
0.238506	209.258
0.239883	209.731
0.241268	210.204
0.242661	210.677
0.244062	211.149
0.245471	211.621
0.246888	212.092
0.248313	212.563
0.249747	213.033
0.251189	213.503
0.252639	213.972
0.254097	214.441
0.255564	214.909
0.25704	215.376
0.258523	215.843
0.260016	216.309
0.261517	216.775
0.263027	217.239
0.264545	217.703
0.266073	218.166
0.267609	218.629
0.269153	219.09
0.270707	219.551
0.27227	220.011
0.273842	220.47
0.275423	220.928
0.277013	221.385
0.278612	221.841
0.280221	222.297
0.281838	222.751
0.283465	223.204
0.285102	223.656
0.286748	224.107
0.288403	224.557
0.290068	225.005
0.291743	225.453
0.293427	225.899
0.295121	226.344
0.296825	226.788
0.298538	227.231
0.300262	227.672
0.301995	228.112
0.303739	228.55
0.305492	228.987
0.307256	229.423
0.30903	229.857
0.310814	230.29
0.312608	230.721
0.314413	231.15
0.316228	231.578
0.318053	232.005
0.31989	232.43
0.321736	232.853
0.323594	233.274
0.325462	233.694
0.327341	234.112
0.32923	234.528
0.331131	234.942
0.333043	235.354
0.334965	235.765
0.336899	236.173
0.338844	236.58
0.3408	236.984
0.342768	237.387
0.344747	237.788
0.346737	238.186
0.348739	238.582
0.350752	238.977
0.352777	239.368
0.354813	239.758
0.356862	240.146
0.358922	240.531
0.360994	240.914
0.363078	241.294
0.365174	241.672
0.367282	242.048
0.369403	242.421
0.371535	242.792
0.37368	243.16
0.375837	243.526
0.378007	243.889
0.380189	244.249
0.382384	244.607
0.384592	244.962
0.386812	245.315
0.389045	245.664
0.391291	246.011
0.39355	246.355
0.395822	246.696
0.398107	247.034
0.400405	247.369
0.402717	247.701
0.405042	248.03
0.40738	248.356
0.409732	248.679
0.412098	248.999
0.414477	249.316
0.416869	249.629
0.419276	249.94
0.421697	250.247
0.424131	250.55
0.42658	250.851
0.429042	251.148
0.431519	251.441
0.43401	251.732
0.436516	252.018
0.439036	252.301
0.44157	252.581
0.44412	252.857
0.446684	253.129
0.449262	253.398
0.451856	253.663
0.454465	253.924
0.457088	254.182
0.459727	254.436
0.462381	254.686
0.46505	254.932
0.467735	255.174
0.470435	255.412
0.473151	255.647
0.475883	255.877
0.47863	256.103
0.481393	256.325
0.484172	256.544
0.486968	256.758
0.489779	256.967
0.492606	257.173
0.49545	257.374
0.49831	257.572
0.501187	257.765
0.504081	257.953
0.506991	258.137
0.509918	258.317
0.512861	258.493
0.515822	258.664
0.5188	258.83
0.521795	258.992
0.524807	259.149
0.527837	259.302
0.530884	259.451
0.533949	259.594
0.537032	259.733
0.540132	259.868
0.54325	259.998
0.546387	260.122
0.549541	260.243
0.552713	260.358
0.555904	260.469
0.559114	260.574
0.562341	260.675
0.565588	260.771
0.568853	260.862
0.572137	260.949
0.57544	261.03
0.578762	261.106
0.582103	261.177
0.585464	261.244
0.588844	261.305
0.592243	261.361
0.595662	261.412
0.599101	261.458
0.60256	261.499
0.606038	261.534
