Stopping power dEdx from Ionisation for Ar40[0.0] Z = 18 in G4_Si, process name: ionIoni
E [MeV]	dEdx [MeV/mm]
0.001	31.3497
0.00100577	31.4408
0.00101158	31.5321
0.00101742	31.6238
0.00102329	31.7156
0.0010292	31.8078
0.00103514	31.9002
0.00104112	31.9928
0.00104713	32.0858
0.00105317	32.179
0.00105925	32.2724
0.00106537	32.3662
0.00107152	32.4602
0.00107771	32.5545
0.00108393	32.649
0.00109018	32.7439
0.00109648	32.839
0.00110281	32.9343
0.00110917	33.03
0.00111558	33.1259
0.00112202	33.2221
0.0011285	33.3186
0.00113501	33.4153
0.00114156	33.5124
0.00114815	33.6097
0.00115478	33.7073
0.00116145	33.8052
0.00116815	33.9033
0.0011749	34.0018
0.00118168	34.1005
0.0011885	34.1995
0.00119536	34.2988
0.00120226	34.3984
0.00120921	34.4982
0.00121619	34.5984
0.00122321	34.6988
0.00123027	34.7996
0.00123737	34.9006
0.00124451	35.0019
0.0012517	35.1035
0.00125893	35.2054
0.00126619	35.3076
0.0012735	35.4101
0.00128086	35.5129
0.00128825	35.616
0.00129569	35.7194
0.00130317	35.823
0.00131069	35.927
0.00131826	36.0313
0.00132587	36.1359
0.00133352	36.2407
0.00134122	36.3459
0.00134896	36.4514
0.00135675	36.5572
0.00136458	36.6633
0.00137246	36.7697
0.00138038	36.8764
0.00138835	36.9834
0.00139637	37.0907
0.00140443	37.1983
0.00141254	37.3063
0.00142069	37.4145
0.00142889	37.5231
0.00143714	37.632
0.00144544	37.7411
0.00145378	37.8506
0.00146218	37.9605
0.00147062	38.0706
0.00147911	38.1811
0.00148765	38.2918
0.00149624	38.4029
0.00150487	38.5143
0.00151356	38.6261
0.0015223	38.7381
0.00153109	38.8505
0.00153993	38.9632
0.00154882	39.0762
0.00155776	39.1896
0.00156675	39.3033
0.0015758	39.4173
0.00158489	39.5316
0.00159404	39.6463
0.00160325	39.7613
0.0016125	39.8766
0.00162181	39.9922
0.00163117	40.1082
0.00164059	40.2246
0.00165006	40.3412
0.00165959	40.4582
0.00166917	40.5756
0.0016788	40.6932
0.0016885	40.8112
0.00169824	40.9296
0.00170805	41.0483
0.00171791	41.1673
0.00172783	41.2867
0.0017378	41.4064
0.00174783	41.5265
0.00175792	41.6469
0.00176807	41.7677
0.00177828	41.8888
0.00178855	42.0102
0.00179887	42.132
0.00180926	42.2542
0.0018197	42.3767
0.00183021	42.4996
0.00184077	42.6228
0.0018514	42.7464
0.00186209	42.8703
0.00187284	42.9946
0.00188365	43.1192
0.00189452	43.2442
0.00190546	43.3696
0.00191646	43.4953
0.00192752	43.6214
0.00193865	43.7479
0.00194984	43.8747
0.0019611	44.0019
0.00197242	44.1294
0.00198381	44.2574
0.00199526	44.3856
0.00200678	44.5143
0.00201837	44.6433
0.00203002	44.7727
0.00204174	44.9025
0.00205353	45.0326
0.00206538	45.1632
0.0020773	45.2941
0.0020893	45.4253
0.00210136	45.557
0.00211349	45.689
0.00212569	45.8214
0.00213796	45.9542
0.0021503	46.0874
0.00216272	46.221
0.0021752	46.3549
0.00218776	46.4892
0.00220039	46.624
0.00221309	46.7591
0.00222587	46.8946
0.00223872	47.0304
0.00225165	47.1667
0.00226464	47.3034
0.00227772	47.4405
0.00229087	47.5779
0.00230409	47.7158
0.00231739	47.854
0.00233077	47.9927
0.00234423	48.1317
0.00235776	48.2712
0.00237137	48.411
0.00238506	48.5513
0.00239883	48.692
0.00241268	48.833
0.00242661	48.9745
0.00244062	49.1164
0.00245471	49.2587
0.00246888	49.4014
0.00248313	49.5445
0.00249747	49.688
0.00251189	49.832
0.00252639	49.9763
0.00254097	50.1211
0.00255564	50.2663
0.0025704	50.4119
0.00258523	50.5579
0.00260016	50.7044
0.00261517	50.8512
0.00263027	50.9985
0.00264545	51.1462
0.00266073	51.2944
0.00267609	51.4429
0.00269153	51.5919
0.00270707	51.7414
0.0027227	51.8912
0.00273842	52.0415
0.00275423	52.1922
0.00277013	52.3434
0.00278612	52.495
0.00280221	52.647
0.00281838	52.7995
0.00283465	52.9524
0.00285102	53.1057
0.00286748	53.2595
0.00288403	53.4138
0.00290068	53.5684
0.00291743	53.7236
0.00293427	53.8791
0.00295121	54.0352
0.00296825	54.1916
0.00298538	54.3485
0.00300262	54.5059
0.00301995	54.6637
0.00303739	54.822
0.00305492	54.9808
0.00307256	55.14
0.0030903	55.2996
0.00310814	55.4597
0.00312608	55.6203
0.00314413	55.7813
0.00316228	55.9428
0.00318053	56.1048
0.0031989	56.2672
0.00321736	56.4301
0.00323594	56.5935
0.00325462	56.7574
0.00327341	56.9217
0.0032923	57.0865
0.00331131	57.2517
0.00333043	57.4175
0.00334965	57.5837
0.00336899	57.7504
0.00338844	57.9176
0.003408	58.0852
0.00342768	58.2534
0.00344747	58.422
0.00346737	58.5911
0.00348739	58.7607
0.00350752	58.9308
0.00352777	59.1014
0.00354813	59.2725
0.00356862	59.444
0.00358922	59.6161
0.00360994	59.7886
0.00363078	59.9617
0.00365174	60.1352
0.00367282	60.3093
0.00369403	60.4838
0.00371535	60.6589
0.0037368	60.8345
0.00375837	61.0105
0.00378007	61.1871
0.00380189	61.3642
0.00382384	61.5418
0.00384592	61.7199
0.00386812	61.8985
0.00389045	62.0776
0.00391291	62.2573
0.0039355	62.4375
0.00395822	62.6182
0.00398107	62.7994
0.00400405	62.9811
0.00402717	63.1633
0.00405042	63.3461
0.0040738	63.5294
0.00409732	63.7133
0.00412098	63.8976
0.00414477	64.0825
0.00416869	64.268
0.00419276	64.4539
0.00421697	64.6404
0.00424131	64.8275
0.0042658	65.015
0.00429042	65.2032
0.00431519	65.3918
0.0043401	65.581
0.00436516	65.7708
0.00439036	65.9611
0.0044157	66.1519
0.0044412	66.3433
0.00446684	66.5352
0.00449262	66.7277
0.00451856	66.9208
0.00454465	67.1144
0.00457088	67.3086
0.00459727	67.5033
0.00462381	67.6986
0.0046505	67.8945
0.00467735	68.0909
0.00470435	68.2879
0.00473151	68.4854
0.00475883	68.6835
0.0047863	68.8822
0.00481393	69.0815
0.00484172	69.2813
0.00486968	69.4817
0.00489779	69.6827
0.00492606	69.8843
0.0049545	70.0864
0.0049831	70.2892
0.00501187	70.4925
0.00504081	70.6964
0.00506991	70.9009
0.00509918	71.106
0.00512861	71.3117
0.00515822	71.5179
0.005188	71.7248
0.00521795	71.9322
0.00524807	72.1403
0.00527837	72.349
0.00530884	72.5582
0.00533949	72.7681
0.00537032	72.9785
0.00540132	73.1896
0.0054325	73.4013
0.00546387	73.6136
0.00549541	73.8265
0.00552713	74.04
0.00555904	74.2541
0.00559114	74.4689
0.00562341	74.6842
0.00565588	74.9002
0.00568853	75.1168
0.00572137	75.3341
0.0057544	75.5519
0.00578762	75.7704
0.00582103	75.9895
0.00585464	76.2093
0.00588844	76.4297
0.00592243	76.6507
0.00595662	76.8723
0.00599101	77.0946
0.0060256	77.3176
0.00606038	77.5412
0.00609537	77.7654
0.00613056	77.9902
0.00616595	78.2158
0.00620155	78.4419
0.00623735	78.6687
0.00627336	78.8962
0.00630957	79.1243
0.006346	79.3531
0.00638263	79.5826
0.00641948	79.8127
0.00645654	80.0435
0.00649382	80.2749
0.00653131	80.507
0.00656901	80.7398
0.00660693	80.9732
0.00664508	81.2073
0.00668344	81.4421
0.00672202	81.6776
0.00676083	81.9137
0.00679986	82.1505
0.00683912	82.3881
0.0068786	82.6262
0.00691831	82.8651
0.00695825	83.1047
0.00699842	83.345
0.00703882	83.5859
0.00707946	83.8276
0.00712033	84.0699
0.00716143	84.3129
0.00720278	84.5567
0.00724436	84.8011
0.00728618	85.0463
0.00732825	85.2921
0.00737055	85.5387
0.0074131	85.786
0.0074559	86.0339
0.00749894	86.2827
0.00754223	86.5321
0.00758578	86.7822
0.00762957	87.0331
0.00767361	87.2846
0.00771792	87.537
0.00776247	87.79
0.00780728	88.0438
0.00785236	88.2982
0.00789769	88.5535
0.00794328	88.8094
0.00798914	89.0661
0.00803526	89.3236
0.00808165	89.5818
0.00812831	89.8407
0.00817523	90.1004
0.00822243	90.3608
0.0082699	90.622
0.00831764	90.8839
0.00836566	91.1466
0.00841395	91.41
0.00846253	91.6742
0.00851138	91.9392
0.00856052	92.2049
0.00860994	92.4714
0.00865964	92.7386
0.00870964	93.0067
0.00875992	93.2755
0.00881049	93.545
0.00886135	93.8154
0.00891251	94.0865
0.00896396	94.3584
0.00901571	94.6311
0.00906776	94.9046
0.00912011	95.1789
0.00917276	95.4539
0.00922571	95.7298
0.00927897	96.0064
0.00933254	96.2839
0.00938642	96.5621
0.00944061	96.8412
0.00949511	97.121
0.00954993	97.4017
0.00960506	97.6832
0.00966051	97.9654
0.00971628	98.2485
0.00977237	98.5324
0.00982879	98.8172
0.00988553	99.1027
0.0099426	99.3891
0.01	99.9259
0.0100577	100.214
0.0101158	100.503
0.0101742	100.792
0.0102329	101.083
0.010292	101.374
0.0103514	101.667
0.0104112	101.96
0.0104713	102.253
0.0105317	102.548
0.0105925	102.844
0.0106537	103.14
0.0107152	103.438
0.0107771	103.736
0.0108393	104.035
0.0109018	104.335
0.0109648	104.635
0.0110281	104.937
0.0110917	105.239
0.0111558	105.543
0.0112202	105.847
0.011285	106.152
0.0113501	106.458
0.0114156	106.765
0.0114815	107.073
0.0115478	107.381
0.0116145	107.691
0.0116815	108.001
0.011749	108.312
0.0118168	108.625
0.011885	108.938
0.0119536	109.252
0.0120226	109.567
0.0120921	109.882
0.0121619	110.199
0.0122321	110.517
0.0123027	110.835
0.0123737	111.155
0.0124451	111.475
0.012517	111.796
0.0125893	112.119
0.0126619	112.442
0.012735	112.766
0.0128086	113.091
0.0128825	113.417
0.0129569	113.744
0.0130317	114.072
0.0131069	114.401
0.0131826	114.73
0.0132587	115.061
0.0133352	115.393
0.0134122	115.725
0.0134896	116.059
0.0135675	116.393
0.0136458	116.729
0.0137246	117.065
0.0138038	117.403
0.0138835	117.741
0.0139637	118.08
0.0140443	118.421
0.0141254	118.762
0.0142069	119.104
0.0142889	119.448
0.0143714	119.792
0.0144544	120.137
0.0145378	120.484
0.0146218	120.831
0.0147062	121.179
0.0147911	121.529
0.0148765	121.879
0.0149624	122.23
0.0150487	122.582
0.0151356	122.936
0.015223	123.29
0.0153109	123.645
0.0153993	124.002
0.0154882	124.359
0.0155776	124.718
0.0156675	125.077
0.015758	125.438
0.0158489	125.799
0.0159404	126.162
0.0160325	126.526
0.016125	126.89
0.0162181	127.256
0.0163117	127.623
0.0164059	127.991
0.0165006	128.36
0.0165959	128.73
0.0166917	129.101
0.016788	129.473
0.016885	129.846
0.0169824	130.22
0.0170805	130.595
0.0171791	130.972
0.0172783	131.349
0.017378	131.728
0.0174783	132.108
0.0175792	132.488
0.0176807	132.87
0.0177828	133.253
0.0178855	133.637
0.0179887	134.023
0.0180926	134.409
0.018197	134.796
0.0183021	135.185
0.0184077	135.575
0.018514	135.965
0.0186209	136.357
0.0187284	136.75
0.0188365	137.144
0.0189452	137.54
0.0190546	137.936
0.0191646	138.334
0.0192752	138.732
0.0193865	139.132
0.0194984	139.533
0.019611	139.936
0.0197242	140.339
0.0198381	140.743
0.0199526	141.149
0.0200678	141.556
0.0201837	141.964
0.0203002	142.373
0.0204174	142.784
0.0205353	143.195
0.0206538	143.608
0.020773	144.022
0.020893	144.437
0.0210136	144.853
0.0211349	145.271
0.0212569	145.689
0.0213796	146.109
0.021503	146.531
0.0216272	146.953
0.021752	147.376
0.0218776	147.801
0.0220039	148.227
0.0221309	148.655
0.0222587	149.083
0.0223872	149.513
0.0225165	149.944
0.0226464	150.376
0.0227772	150.809
0.0229087	151.244
0.0230409	151.68
0.0231739	152.117
0.0233077	152.556
0.0234423	152.995
0.0235776	153.436
0.0237137	153.879
0.0238506	154.322
0.0239883	154.767
0.0241268	155.213
0.0242661	155.66
0.0244062	156.109
0.0245471	156.559
0.0246888	157.01
0.0248313	157.463
0.0249747	157.917
0.0251189	158.372
0.0252639	158.828
0.0254097	159.286
0.0255564	159.745
0.025704	160.206
0.0258523	160.668
0.0260016	161.131
0.0261517	161.595
0.0263027	162.061
0.0264545	162.528
0.0266073	162.996
0.0267609	163.466
0.0269153	163.937
0.0270707	164.41
0.027227	164.884
0.0273842	165.359
0.0275423	165.836
0.0277013	166.314
0.0278612	166.793
0.0280221	167.274
0.0281838	167.756
0.0283465	168.24
0.0285102	168.724
0.0286748	169.211
0.0288403	169.699
0.0290068	170.188
0.0291743	170.678
0.0293427	171.17
0.0295121	171.664
0.0296825	172.158
0.0298538	172.655
0.0300262	173.152
0.0301995	173.651
0.0303739	174.152
0.0305492	174.654
0.0307256	175.157
0.030903	175.662
0.0310814	176.168
0.0312608	176.676
0.0314413	177.185
0.0316228	177.696
0.0318053	178.208
0.031989	178.722
0.0321736	179.237
0.0323594	179.754
0.0325462	180.272
0.0327341	180.792
0.032923	181.313
0.0331131	181.835
0.0333043	182.359
0.0334965	182.885
0.0336899	183.412
0.0338844	183.941
0.03408	184.471
0.0342768	185.003
0.0344747	185.536
0.0346737	186.071
0.0348739	186.607
0.0350752	187.145
0.0352777	187.684
0.0354813	188.225
0.0356862	188.768
0.0358922	189.312
0.0360994	189.858
0.0363078	190.405
0.0365174	190.954
0.0367282	191.504
0.0369403	192.056
0.0371535	192.61
0.037368	193.165
0.0375837	193.722
0.0378007	194.28
0.0380189	194.84
0.0382384	195.402
0.0384592	195.965
0.0386812	196.53
0.0389045	197.096
0.0391291	197.664
0.039355	198.234
0.0395822	198.805
0.0398107	199.378
0.0400405	199.953
0.0402717	200.529
0.0405042	201.107
0.040738	201.687
0.0409732	202.268
0.0412098	202.851
0.0414477	203.436
0.0416869	204.023
0.0419276	204.611
0.0421697	205.2
0.0424131	205.792
0.042658	206.385
0.0429042	206.98
0.0431519	207.576
0.043401	208.175
0.0436516	208.775
0.0439036	209.377
0.044157	209.98
0.044412	210.585
0.0446684	211.192
0.0449262	211.801
0.0451856	212.412
0.0454465	213.024
0.0457088	213.638
0.0459727	214.254
0.0462381	214.871
0.046505	215.491
0.0467735	216.112
0.0470435	216.735
0.0473151	217.359
0.0475883	217.986
0.047863	218.614
0.0481393	219.244
0.0484172	219.876
0.0486968	220.51
0.0489779	221.146
0.0492606	221.783
0.049545	222.422
0.049831	223.063
0.0501187	223.706
0.0504081	224.351
0.0506991	224.998
0.0509918	225.646
0.0512861	226.297
0.0515822	226.949
0.05188	227.603
0.0521795	228.259
0.0524807	228.917
0.0527837	229.577
0.0530884	230.239
0.0533949	230.902
0.0537032	231.568
0.0540132	232.235
0.054325	232.905
0.0546387	233.576
0.0549541	234.249
0.0552713	234.924
0.0555904	235.602
0.0559114	236.281
0.0562341	236.962
0.0565588	237.645
0.0568853	238.33
0.0572137	239.017
0.057544	239.706
0.0578762	240.397
0.0582103	241.089
0.0585464	241.784
0.0588844	242.481
0.0592243	243.18
0.0595662	243.881
0.0599101	244.584
0.060256	245.289
0.0606038	245.996
0.0609537	246.705
0.0613056	247.416
0.0616595	248.129
0.0620155	248.845
0.0623735	249.562
0.0627336	250.281
0.0630957	251.003
0.06346	251.726
0.0638263	252.452
0.0641948	253.179
0.0645654	253.909
0.0649382	254.641
0.0653131	255.375
0.0656901	256.111
0.0660693	256.849
0.0664508	257.589
0.0668344	258.332
0.0672202	259.077
0.0676083	259.823
0.0679986	260.572
0.0683912	261.323
0.068786	262.077
0.0691831	262.832
0.0695825	263.59
0.0699842	264.349
0.0703882	265.111
0.0707946	265.875
0.0712033	266.642
0.0716143	267.41
0.0720278	268.181
0.0724436	268.954
0.0728618	269.729
0.0732825	270.507
0.0737055	271.286
0.074131	272.068
0.074559	272.853
0.0749894	273.639
0.0754223	274.428
0.0758578	275.219
0.0762957	276.012
0.0767361	276.808
0.0771792	277.606
0.0776247	278.406
0.0780728	279.208
0.0785236	280.013
0.0789769	280.82
0.0794328	281.63
0.0798914	282.441
0.0803526	283.255
0.0808165	284.072
0.0812831	284.891
0.0817523	285.712
0.0822243	286.535
0.082699	287.361
0.0831764	288.189
0.0836566	289.02
0.0841395	289.853
0.0846253	290.689
0.0851138	291.527
0.0856052	292.367
0.0860994	293.21
0.0865964	294.055
0.0870964	294.902
0.0875992	295.752
0.0881049	296.605
0.0886135	297.46
0.0891251	298.317
0.0896396	299.177
0.0901571	300.039
0.0906776	300.904
0.0912011	301.771
0.0917276	302.641
0.0922571	303.514
0.0927897	304.388
0.0933254	305.266
0.0938642	306.146
0.0944061	307.028
0.0949511	307.913
0.0954993	308.801
0.0960506	309.691
0.0966051	310.583
0.0971628	311.479
0.0977237	312.376
0.0982879	313.277
0.0988553	314.18
0.099426	315.085
0.1	315.993
0.100577	316.904
0.101158	317.818
0.101742	318.734
0.102329	319.653
0.10292	320.574
0.103514	321.498
0.104112	322.425
0.104713	323.354
0.105317	324.286
0.105925	325.221
0.106537	326.158
0.107152	327.098
0.107771	328.041
0.108393	328.987
0.109018	329.935
0.109648	330.886
0.110281	331.84
0.110917	332.796
0.111558	333.755
0.112202	334.717
0.11285	335.682
0.113501	336.65
0.114156	337.62
0.114815	338.593
0.115478	339.569
0.116145	340.548
0.116815	341.529
0.11749	342.514
0.118168	343.501
0.11885	344.491
0.119536	345.484
0.120226	346.48
0.120921	347.479
0.121619	348.48
0.122321	349.485
0.123027	350.492
0.123737	351.502
0.124451	352.515
0.12517	353.532
0.125893	354.551
0.126619	355.572
0.12735	356.597
0.128086	357.625
0.128825	358.656
0.129569	359.69
0.130317	360.727
0.131069	361.766
0.131826	362.809
0.132587	363.855
0.133352	364.904
0.134122	365.955
0.134896	367.01
0.135675	368.068
0.136458	369.129
0.137246	370.193
0.138038	371.26
0.138835	372.33
0.139637	373.403
0.140443	374.48
0.141254	375.559
0.142069	376.641
0.142889	377.727
0.143714	378.816
0.144544	379.908
0.145378	381.003
0.146218	382.101
0.147062	383.202
0.147911	384.307
0.148765	385.415
0.149624	386.525
0.150487	387.64
0.151356	388.757
0.15223	389.877
0.153109	391.001
0.153993	392.128
0.154882	393.259
0.155776	394.392
0.156675	395.529
0.15758	396.669
0.158489	397.812
0.159404	398.959
0.160325	400.109
0.16125	401.262
0.162181	402.419
0.163117	403.579
0.164059	404.742
0.165006	405.909
0.165959	407.078
0.166917	408.252
0.16788	409.429
0.16885	410.609
0.169824	411.792
0.170805	412.979
0.171791	414.17
0.172783	415.363
0.17378	416.561
0.174783	417.761
0.175792	418.965
0.176807	420.173
0.177828	421.384
0.178855	422.599
0.179887	423.817
0.180926	425.038
0.18197	426.263
0.183021	427.492
0.184077	428.724
0.18514	429.96
0.186209	431.199
0.187284	432.442
0.188365	433.689
0.189452	434.939
0.190546	436.192
0.191646	437.45
0.192752	438.711
0.193865	439.975
0.194984	441.243
0.19611	442.515
0.197242	443.791
0.198381	445.07
0.199526	446.353
0.200678	447.639
0.201837	448.93
0.203002	450.223
0.204174	451.521
0.205353	452.823
0.206538	454.128
0.20773	455.437
0.20893	456.75
0.210136	458.066
0.211349	459.386
0.212569	460.711
0.213796	462.038
0.21503	463.37
0.216272	464.706
0.21752	466.045
0.218776	467.389
0.220039	468.736
0.221309	470.087
0.222587	471.442
0.223872	472.801
0.225165	474.164
0.226464	475.53
0.227772	476.901
0.229087	478.276
0.230409	479.654
0.231739	481.037
0.233077	482.423
0.234423	483.814
0.235776	485.208
0.237137	486.607
0.238506	488.009
0.239883	489.416
0.241268	490.827
0.242661	492.241
0.244062	493.66
0.245471	495.083
0.246888	496.51
0.248313	497.941
0.249747	499.377
0.251189	500.816
0.252639	502.259
0.254097	503.707
0.255564	505.159
0.25704	506.615
0.258523	508.075
0.260016	509.54
0.261517	511.009
0.263027	512.481
0.264545	513.959
0.266073	515.44
0.267609	516.926
0.269153	518.416
0.270707	519.91
0.27227	521.409
0.273842	522.911
0.275423	524.419
0.277013	525.93
0.278612	527.446
0.280221	528.966
0.281838	530.491
0.283465	532.02
0.285102	533.554
0.286748	535.092
0.288403	536.634
0.290068	538.181
0.291743	539.732
0.293427	541.288
0.295121	542.848
0.296825	544.413
0.298538	545.982
0.300262	547.556
0.301995	549.134
0.303739	550.717
0.305492	552.304
0.307256	553.896
0.30903	555.492
0.310814	557.094
0.312608	558.699
0.314413	560.31
0.316228	561.925
0.318053	563.544
0.31989	565.169
0.321736	566.798
0.323594	568.432
0.325462	570.07
0.327341	571.713
0.32923	573.361
0.331131	575.014
0.333043	576.671
0.334965	578.333
0.336899	580
0.338844	581.672
0.3408	583.349
0.342768	585.03
0.344747	586.716
0.346737	588.407
0.348739	590.103
0.350752	591.804
0.352777	593.51
0.354813	595.221
0.356862	596.937
0.358922	598.657
0.360994	600.383
0.363078	602.113
0.365174	603.849
0.367282	605.589
0.369403	607.335
0.371535	609.085
0.37368	610.841
0.375837	612.602
0.378007	614.367
0.380189	616.138
0.382384	617.914
0.384592	619.695
0.386812	621.481
0.389045	623.273
0.391291	625.069
0.39355	626.871
0.395822	628.678
0.398107	630.49
0.400405	632.307
0.402717	634.13
0.405042	635.958
0.40738	637.791
0.409732	639.629
0.412098	641.473
0.414477	643.322
0.416869	645.176
0.419276	647.036
0.421697	648.901
0.424131	650.771
0.42658	652.647
0.429042	654.528
0.431519	656.414
0.43401	658.307
0.436516	660.204
0.439036	662.107
0.44157	664.015
0.44412	665.929
0.446684	667.849
0.449262	669.774
0.451856	671.704
0.454465	673.64
0.457088	675.582
0.459727	677.529
0.462381	679.482
0.46505	681.441
0.467735	683.405
0.470435	685.375
0.473151	687.35
0.475883	689.332
0.47863	691.318
0.481393	693.311
0.484172	695.309
0.486968	697.314
0.489779	699.324
0.492606	701.339
0.49545	703.361
0.49831	705.388
0.501187	707.421
0.504081	709.46
0.506991	711.505
0.509918	713.556
0.512861	715.613
0.515822	717.676
0.5188	719.744
0.521795	721.819
0.524807	723.899
0.527837	725.986
0.530884	728.078
0.533949	730.177
0.537032	732.282
0.540132	734.392
0.54325	736.509
0.546387	738.632
0.549541	740.761
0.552713	742.896
0.555904	745.038
0.559114	747.185
0.562341	749.339
0.565588	751.499
0.568853	753.665
0.572137	755.837
0.57544	758.016
0.578762	760.2
0.582103	762.392
0.585464	764.589
0.588844	766.793
0.592243	769.003
0.595662	771.22
0.599101	773.443
0.60256	775.672
0.606038	777.908
0.609537	780.15
