Stopping power dEdx from Ionisation for Ar40[0.0] Z = 18 in Water, process name: ionIoni
E [MeV]	dEdx [MeV/mm]
0.001	21.6095
0.00100577	21.6721
0.00101158	21.7349
0.00101742	21.7979
0.00102329	21.8611
0.0010292	21.9244
0.00103514	21.988
0.00104112	22.0517
0.00104713	22.1156
0.00105317	22.1797
0.00105925	22.2439
0.00106537	22.3084
0.00107152	22.373
0.00107771	22.4379
0.00108393	22.5029
0.00109018	22.5681
0.00109648	22.6335
0.00110281	22.699
0.00110917	22.7648
0.00111558	22.8308
0.00112202	22.8969
0.0011285	22.9632
0.00113501	23.0298
0.00114156	23.0965
0.00114815	23.1634
0.00115478	23.2305
0.00116145	23.2978
0.00116815	23.3653
0.0011749	23.433
0.00118168	23.5009
0.0011885	23.569
0.00119536	23.6372
0.00120226	23.7057
0.00120921	23.7744
0.00121619	23.8432
0.00122321	23.9123
0.00123027	23.9816
0.00123737	24.051
0.00124451	24.1207
0.0012517	24.1906
0.00125893	24.2606
0.00126619	24.3309
0.0012735	24.4014
0.00128086	24.472
0.00128825	24.5429
0.00129569	24.614
0.00130317	24.6853
0.00131069	24.7568
0.00131826	24.8285
0.00132587	24.9004
0.00133352	24.9725
0.00134122	25.0448
0.00134896	25.1173
0.00135675	25.1901
0.00136458	25.263
0.00137246	25.3362
0.00138038	25.4096
0.00138835	25.4831
0.00139637	25.5569
0.00140443	25.6309
0.00141254	25.7052
0.00142069	25.7796
0.00142889	25.8542
0.00143714	25.9291
0.00144544	26.0042
0.00145378	26.0795
0.00146218	26.155
0.00147062	26.2307
0.00147911	26.3067
0.00148765	26.3828
0.00149624	26.4592
0.00150487	26.5358
0.00151356	26.6126
0.0015223	26.6897
0.00153109	26.767
0.00153993	26.8444
0.00154882	26.9222
0.00155776	27.0001
0.00156675	27.0783
0.0015758	27.1567
0.00158489	27.2353
0.00159404	27.3141
0.00160325	27.3932
0.0016125	27.4725
0.00162181	27.552
0.00163117	27.6318
0.00164059	27.7117
0.00165006	27.792
0.00165959	27.8724
0.00166917	27.9531
0.0016788	28.034
0.0016885	28.1151
0.00169824	28.1965
0.00170805	28.2781
0.00171791	28.36
0.00172783	28.4421
0.0017378	28.5244
0.00174783	28.607
0.00175792	28.6897
0.00176807	28.7728
0.00177828	28.8561
0.00178855	28.9396
0.00179887	29.0233
0.00180926	29.1073
0.0018197	29.1916
0.00183021	29.276
0.00184077	29.3608
0.0018514	29.4457
0.00186209	29.5309
0.00187284	29.6164
0.00188365	29.7021
0.00189452	29.7881
0.00190546	29.8743
0.00191646	29.9607
0.00192752	30.0474
0.00193865	30.1344
0.00194984	30.2216
0.0019611	30.309
0.00197242	30.3967
0.00198381	30.4847
0.00199526	30.5729
0.00200678	30.6613
0.00201837	30.7501
0.00203002	30.839
0.00204174	30.9283
0.00205353	31.0177
0.00206538	31.1075
0.0020773	31.1975
0.0020893	31.2878
0.00210136	31.3783
0.00211349	31.4691
0.00212569	31.5601
0.00213796	31.6514
0.0021503	31.743
0.00216272	31.8348
0.0021752	31.9269
0.00218776	32.0193
0.00220039	32.1119
0.00221309	32.2048
0.00222587	32.298
0.00223872	32.3914
0.00225165	32.4851
0.00226464	32.5791
0.00227772	32.6734
0.00229087	32.7679
0.00230409	32.8627
0.00231739	32.9577
0.00233077	33.0531
0.00234423	33.1487
0.00235776	33.2446
0.00237137	33.3407
0.00238506	33.4372
0.00239883	33.5339
0.00241268	33.6309
0.00242661	33.7282
0.00244062	33.8257
0.00245471	33.9236
0.00246888	34.0217
0.00248313	34.1201
0.00249747	34.2188
0.00251189	34.3177
0.00252639	34.417
0.00254097	34.5165
0.00255564	34.6164
0.0025704	34.7165
0.00258523	34.8169
0.00260016	34.9176
0.00261517	35.0186
0.00263027	35.1198
0.00264545	35.2214
0.00266073	35.3233
0.00267609	35.4254
0.00269153	35.5279
0.00270707	35.6306
0.0027227	35.7337
0.00273842	35.837
0.00275423	35.9406
0.00277013	36.0446
0.00278612	36.1488
0.00280221	36.2533
0.00281838	36.3582
0.00283465	36.4633
0.00285102	36.5688
0.00286748	36.6745
0.00288403	36.7806
0.00290068	36.8869
0.00291743	36.9936
0.00293427	37.1005
0.00295121	37.2078
0.00296825	37.3154
0.00298538	37.4233
0.00300262	37.5315
0.00301995	37.64
0.00303739	37.7489
0.00305492	37.858
0.00307256	37.9675
0.0030903	38.0773
0.00310814	38.1873
0.00312608	38.2978
0.00314413	38.4085
0.00316228	38.5195
0.00318053	38.6309
0.0031989	38.7426
0.00321736	38.8546
0.00323594	38.9669
0.00325462	39.0796
0.00327341	39.1926
0.0032923	39.3059
0.00331131	39.4195
0.00333043	39.5335
0.00334965	39.6478
0.00336899	39.7624
0.00338844	39.8773
0.003408	39.9926
0.00342768	40.1082
0.00344747	40.2242
0.00346737	40.3405
0.00348739	40.4571
0.00350752	40.574
0.00352777	40.6913
0.00354813	40.809
0.00356862	40.9269
0.00358922	41.0452
0.00360994	41.1639
0.00363078	41.2829
0.00365174	41.4022
0.00367282	41.5219
0.00369403	41.6419
0.00371535	41.7623
0.0037368	41.883
0.00375837	42.004
0.00378007	42.1255
0.00380189	42.2472
0.00382384	42.3693
0.00384592	42.4918
0.00386812	42.6146
0.00389045	42.7378
0.00391291	42.8613
0.0039355	42.9852
0.00395822	43.1094
0.00398107	43.234
0.00400405	43.359
0.00402717	43.4843
0.00405042	43.61
0.0040738	43.736
0.00409732	43.8624
0.00412098	43.9892
0.00414477	44.1163
0.00416869	44.2438
0.00419276	44.3717
0.00421697	44.4999
0.00424131	44.6285
0.0042658	44.7575
0.00429042	44.8869
0.00431519	45.0166
0.0043401	45.1467
0.00436516	45.2771
0.00439036	45.408
0.0044157	45.5392
0.0044412	45.6708
0.00446684	45.8028
0.00449262	45.9352
0.00451856	46.0679
0.00454465	46.201
0.00457088	46.3345
0.00459727	46.4684
0.00462381	46.6027
0.0046505	46.7374
0.00467735	46.8724
0.00470435	47.0079
0.00473151	47.2617
0.00475883	47.398
0.0047863	47.5346
0.00481393	47.6716
0.00484172	47.809
0.00486968	47.9468
0.00489779	48.085
0.00492606	48.2236
0.0049545	48.3626
0.0049831	48.502
0.00501187	48.6418
0.00504081	48.782
0.00506991	48.9226
0.00509918	49.0636
0.00512861	49.205
0.00515822	49.3469
0.005188	49.4891
0.00521795	49.6318
0.00524807	49.7748
0.00527837	49.9183
0.00530884	50.0622
0.00533949	50.2065
0.00537032	50.3512
0.00540132	50.4963
0.0054325	50.6419
0.00546387	50.7878
0.00549541	50.9342
0.00552713	51.081
0.00555904	51.2283
0.00559114	51.3759
0.00562341	51.524
0.00565588	51.6725
0.00568853	51.8215
0.00572137	51.9708
0.0057544	52.1206
0.00578762	52.2709
0.00582103	52.4215
0.00585464	52.5726
0.00588844	52.7242
0.00592243	52.8761
0.00595662	53.0285
0.00599101	53.1814
0.0060256	53.3347
0.00606038	53.4884
0.00609537	53.6426
0.00613056	53.7972
0.00616595	53.9523
0.00620155	54.1078
0.00623735	54.2637
0.00627336	54.4201
0.00630957	54.577
0.006346	54.7343
0.00638263	54.8921
0.00641948	55.0503
0.00645654	55.209
0.00649382	55.3681
0.00653131	55.5277
0.00656901	55.6877
0.00660693	55.8483
0.00664508	56.0092
0.00668344	56.1707
0.00672202	56.3326
0.00676083	56.4949
0.00679986	56.6578
0.00683912	56.8211
0.0068786	56.9849
0.00691831	57.1491
0.00695825	57.3139
0.00699842	57.4791
0.00703882	57.6447
0.00707946	57.8109
0.00712033	57.9775
0.00716143	58.1446
0.00720278	58.3122
0.00724436	58.4803
0.00728618	58.6489
0.00732825	58.8179
0.00737055	58.9874
0.0074131	59.1575
0.0074559	59.328
0.00749894	59.499
0.00754223	59.6705
0.00758578	59.8425
0.00762957	60.015
0.00767361	60.188
0.00771792	60.3614
0.00776247	60.5354
0.00780728	60.7099
0.00785236	60.8849
0.00789769	61.0604
0.00794328	61.2364
0.00798914	61.4129
0.00803526	61.5899
0.00808165	61.7674
0.00812831	61.9455
0.00817523	62.124
0.00822243	62.3031
0.0082699	62.4827
0.00831764	62.6628
0.00836566	62.8434
0.00841395	63.0245
0.00846253	63.2062
0.00851138	63.3884
0.00856052	63.5711
0.00860994	63.7543
0.00865964	63.9381
0.00870964	64.1224
0.00875992	64.3072
0.00881049	64.4926
0.00886135	64.6785
0.00891251	64.8649
0.00896396	65.0518
0.00901571	65.2393
0.00906776	65.4274
0.00912011	65.616
0.00917276	65.8051
0.00922571	65.9948
0.00927897	66.185
0.00933254	66.3758
0.00938642	66.5671
0.00944061	66.759
0.00949511	66.9514
0.00954993	67.1444
0.00960506	67.3379
0.00966051	67.532
0.00971628	67.7267
0.00977237	67.9219
0.00982879	68.1176
0.00988553	68.314
0.0099426	68.5109
0.01	68.7084
0.0100577	68.9064
0.0101158	69.105
0.0101742	69.3042
0.0102329	69.504
0.010292	69.7043
0.0103514	69.9052
0.0104112	70.1067
0.0104713	70.3088
0.0105317	70.5114
0.0105925	70.7147
0.0106537	70.9185
0.0107152	71.1229
0.0107771	71.3279
0.0108393	71.5335
0.0109018	71.7397
0.0109648	71.9465
0.0110281	72.1539
0.0110917	72.3618
0.0111558	72.5704
0.0112202	72.7796
0.011285	72.9894
0.0113501	73.1998
0.0114156	73.4107
0.0114815	73.6223
0.0115478	73.8345
0.0116145	74.0474
0.0116815	74.2608
0.011749	74.4748
0.0118168	74.6895
0.011885	74.9048
0.0119536	75.1207
0.0120226	75.3372
0.0120921	75.5544
0.0121619	75.7721
0.0122321	75.9906
0.0123027	76.2096
0.0123737	76.4293
0.0124451	76.6495
0.012517	76.8705
0.0125893	77.0921
0.0126619	77.3143
0.012735	77.5371
0.0128086	77.7606
0.0128825	77.9847
0.0129569	78.2095
0.0130317	78.4349
0.0131069	78.661
0.0131826	78.8878
0.0132587	79.1151
0.0133352	79.3432
0.0134122	79.5719
0.0134896	79.8012
0.0135675	80.0313
0.0136458	80.2619
0.0137246	80.4933
0.0138038	80.7253
0.0138835	80.958
0.0139637	81.1913
0.0140443	81.4253
0.0141254	81.66
0.0142069	81.8954
0.0142889	82.1315
0.0143714	82.3682
0.0144544	82.6056
0.0145378	82.8437
0.0146218	83.0825
0.0147062	83.322
0.0147911	83.5622
0.0148765	83.803
0.0149624	84.0446
0.0150487	84.2868
0.0151356	84.5298
0.015223	84.7734
0.0153109	85.0178
0.0153993	85.2628
0.0154882	85.5086
0.0155776	85.755
0.0156675	86.0022
0.015758	86.2501
0.0158489	86.4987
0.0159404	86.748
0.0160325	86.9981
0.016125	87.2488
0.0162181	87.5003
0.0163117	87.7525
0.0164059	88.0055
0.0165006	88.2591
0.0165959	88.5135
0.0166917	88.7686
0.016788	89.0245
0.016885	89.2811
0.0169824	89.5385
0.0170805	89.7965
0.0171791	90.0554
0.0172783	90.3149
0.017378	90.5753
0.0174783	90.8363
0.0175792	91.0982
0.0176807	91.3607
0.0177828	91.6241
0.0178855	91.8882
0.0179887	92.153
0.0180926	92.4186
0.018197	92.685
0.0183021	92.9522
0.0184077	93.2201
0.018514	93.4888
0.0186209	93.7583
0.0187284	94.0285
0.0188365	94.2995
0.0189452	94.5714
0.0190546	94.8439
0.0191646	95.1173
0.0192752	95.3915
0.0193865	95.6664
0.0194984	95.9422
0.019611	96.2187
0.0197242	96.4961
0.0198381	96.7742
0.0199526	97.0531
0.0200678	97.3329
0.0201837	97.6134
0.0203002	97.8948
0.0204174	98.177
0.0205353	98.4599
0.0206538	98.7437
0.020773	99.0284
0.020893	99.3138
0.0210136	99.6001
0.0211349	99.8871
0.0212569	100.175
0.0213796	100.464
0.021503	100.753
0.0216272	101.044
0.021752	101.335
0.0218776	101.627
0.0220039	101.92
0.0221309	102.214
0.0222587	102.508
0.0223872	102.804
0.0225165	103.1
0.0226464	103.397
0.0227772	103.695
0.0229087	103.994
0.0230409	104.294
0.0231739	104.595
0.0233077	104.896
0.0234423	105.199
0.0235776	105.502
0.0237137	105.806
0.0238506	106.111
0.0239883	106.417
0.0241268	106.723
0.0242661	107.031
0.0244062	107.34
0.0245471	107.649
0.0246888	107.959
0.0248313	108.27
0.0249747	108.582
0.0251189	108.895
0.0252639	109.209
0.0254097	109.524
0.0255564	109.84
0.025704	110.156
0.0258523	110.474
0.0260016	110.792
0.0261517	111.112
0.0263027	111.432
0.0264545	111.753
0.0266073	112.075
0.0267609	112.398
0.0269153	112.722
0.0270707	113.047
0.027227	113.373
0.0273842	113.7
0.0275423	114.028
0.0277013	114.356
0.0278612	114.686
0.0280221	115.016
0.0281838	115.348
0.0283465	115.68
0.0285102	116.014
0.0286748	116.348
0.0288403	116.684
0.0290068	117.02
0.0291743	117.357
0.0293427	117.695
0.0295121	118.035
0.0296825	118.375
0.0298538	118.716
0.0300262	119.058
0.0301995	119.401
0.0303739	119.746
0.0305492	120.091
0.0307256	120.437
0.030903	120.784
0.0310814	121.132
0.0312608	121.481
0.0314413	121.832
0.0316228	122.183
0.0318053	122.535
0.031989	122.888
0.0321736	123.242
0.0323594	123.597
0.0325462	123.954
0.0327341	124.311
0.032923	124.669
0.0331131	125.029
0.0333043	125.389
0.0334965	125.75
0.0336899	126.113
0.0338844	126.476
0.03408	126.841
0.0342768	127.207
0.0344747	127.573
0.0346737	127.941
0.0348739	128.31
0.0350752	128.68
0.0352777	129.05
0.0354813	129.422
0.0356862	129.795
0.0358922	130.17
0.0360994	130.545
0.0363078	130.921
0.0365174	131.298
0.0367282	131.677
0.0369403	132.056
0.0371535	132.437
0.037368	132.819
0.0375837	133.202
0.0378007	133.586
0.0380189	133.971
0.0382384	134.357
0.0384592	134.744
0.0386812	135.132
0.0389045	135.522
0.0391291	135.913
0.039355	136.304
0.0395822	136.697
0.0398107	137.091
0.0400405	137.486
0.0402717	137.883
0.0405042	138.28
0.040738	138.679
0.0409732	139.078
0.0412098	139.479
0.0414477	139.881
0.0416869	140.284
0.0419276	140.689
0.0421697	141.094
0.0424131	141.501
0.042658	141.909
0.0429042	142.318
0.0431519	142.728
0.043401	143.14
0.0436516	143.552
0.0439036	143.966
0.044157	144.381
0.044412	144.797
0.0446684	145.214
0.0449262	145.633
0.0451856	146.053
0.0454465	146.474
0.0457088	146.896
0.0459727	147.319
0.0462381	147.744
0.046505	148.17
0.0467735	148.597
0.0470435	149.025
0.0473151	149.455
0.0475883	149.885
0.047863	150.318
0.0481393	150.751
0.0484172	151.185
0.0486968	151.621
0.0489779	152.058
0.0492606	152.496
0.049545	152.936
0.049831	153.377
0.0501187	153.819
0.0504081	154.262
0.0506991	154.707
0.0509918	155.153
0.0512861	155.6
0.0515822	156.049
0.05188	156.498
0.0521795	156.949
0.0524807	157.402
0.0527837	157.855
0.0530884	158.31
0.0533949	158.767
0.0537032	159.224
0.0540132	159.683
0.054325	160.144
0.0546387	160.605
0.0549541	161.068
0.0552713	161.532
0.0555904	161.998
0.0559114	162.465
0.0562341	162.933
0.0565588	163.403
0.0568853	163.874
0.0572137	164.346
0.057544	164.82
0.0578762	165.295
0.0582103	165.771
0.0585464	166.249
0.0588844	166.728
0.0592243	167.209
0.0595662	167.691
0.0599101	168.174
0.060256	168.659
0.0606038	169.145
0.0609537	169.633
0.0613056	170.122
0.0616595	170.612
0.0620155	171.104
0.0623735	171.597
0.0627336	172.092
0.0630957	172.588
0.06346	173.085
0.0638263	173.584
0.0641948	174.084
0.0645654	174.586
0.0649382	175.089
0.0653131	175.594
0.0656901	176.1
0.0660693	176.608
0.0664508	177.117
0.0668344	177.627
0.0672202	178.139
0.0676083	178.653
0.0679986	179.168
0.0683912	179.684
0.068786	180.202
0.0691831	180.721
0.0695825	181.242
0.0699842	181.765
0.0703882	182.289
0.0707946	182.814
0.0712033	183.341
0.0716143	183.869
0.0720278	184.399
0.0724436	184.931
0.0728618	185.464
0.0732825	185.999
0.0737055	186.535
0.074131	187.072
0.074559	187.612
0.0749894	188.152
0.0754223	188.695
0.0758578	189.239
0.0762957	189.784
0.0767361	190.331
0.0771792	190.88
0.0776247	191.43
0.0780728	191.982
0.0785236	192.535
0.0789769	193.09
0.0794328	193.646
0.0798914	194.205
0.0803526	194.764
0.0808165	195.326
0.0812831	195.889
0.0817523	196.453
0.0822243	197.02
0.082699	197.588
0.0831764	198.157
0.0836566	198.728
0.0841395	199.301
0.0846253	199.876
0.0851138	200.452
0.0856052	201.029
0.0860994	201.609
0.0865964	202.19
0.0870964	202.773
0.0875992	203.357
0.0881049	203.943
0.0886135	204.531
0.0891251	205.121
0.0896396	205.712
0.0901571	206.305
0.0906776	206.9
0.0912011	207.496
0.0917276	208.094
0.0922571	208.694
0.0927897	209.295
0.0933254	209.899
0.0938642	210.504
0.0944061	211.11
0.0949511	211.719
0.0954993	212.329
0.0960506	212.941
0.0966051	213.555
0.0971628	214.17
0.0977237	214.788
0.0982879	215.407
0.0988553	216.028
0.099426	216.65
0.1	217.275
0.100577	217.901
0.101158	218.529
0.101742	219.159
0.102329	219.791
0.10292	220.424
0.103514	221.06
0.104112	221.697
0.104713	222.336
0.105317	222.977
0.105925	223.619
0.106537	224.264
0.107152	224.91
0.107771	225.559
0.108393	226.209
0.109018	226.861
0.109648	227.515
0.110281	228.171
0.110917	228.828
0.111558	229.488
0.112202	230.149
0.11285	230.813
0.113501	231.478
0.114156	232.145
0.114815	232.814
0.115478	233.485
0.116145	234.158
0.116815	234.833
0.11749	235.51
0.118168	236.189
0.11885	236.87
0.119536	237.553
0.120226	238.237
0.120921	238.924
0.121619	239.613
0.122321	240.303
0.123027	240.996
0.123737	241.691
0.124451	242.387
0.12517	243.086
0.125893	243.786
0.126619	244.489
0.12735	245.194
0.128086	245.901
0.128825	246.609
0.129569	247.32
0.130317	248.033
0.131069	248.748
0.131826	249.465
0.132587	250.184
0.133352	250.905
0.134122	251.628
0.134896	252.354
0.135675	253.081
0.136458	253.811
0.137246	254.542
0.138038	255.276
0.138835	256.012
0.139637	256.75
0.140443	257.49
0.141254	258.232
0.142069	258.976
0.142889	259.723
0.143714	260.471
0.144544	261.222
0.145378	261.975
0.146218	262.73
0.147062	263.487
0.147911	264.247
0.148765	265.008
0.149624	265.772
0.150487	266.538
0.151356	267.307
0.15223	268.077
0.153109	268.85
0.153993	269.625
0.154882	270.402
0.155776	271.181
0.156675	271.963
0.15758	272.747
0.158489	273.533
0.159404	274.321
0.160325	275.112
0.16125	275.905
0.162181	276.7
0.163117	277.498
0.164059	278.298
0.165006	279.1
0.165959	279.904
0.166917	280.711
0.16788	281.52
0.16885	282.332
0.169824	283.145
0.170805	283.962
0.171791	284.78
0.172783	285.601
0.17378	286.424
0.174783	287.25
0.175792	288.078
0.176807	288.908
0.177828	289.741
0.178855	290.576
0.179887	291.413
0.180926	292.253
0.18197	293.096
0.183021	293.941
0.184077	294.788
0.18514	295.638
0.186209	296.49
0.187284	297.344
0.188365	298.201
0.189452	299.061
0.190546	299.923
0.191646	300.787
0.192752	301.654
0.193865	302.524
0.194984	303.396
0.19611	304.27
0.197242	305.147
0.198381	306.027
0.199526	306.909
0.200678	307.794
0.201837	308.681
0.203002	309.571
0.204174	310.463
0.205353	311.358
0.206538	312.255
0.20773	313.155
0.20893	314.058
0.210136	314.963
0.211349	315.871
0.212569	316.781
0.213796	317.694
0.21503	318.61
0.216272	319.529
0.21752	320.45
0.218776	321.373
0.220039	322.299
0.221309	323.228
0.222587	324.16
0.223872	325.094
0.225165	326.032
0.226464	326.971
0.227772	327.914
0.229087	328.859
0.230409	329.807
0.231739	330.757
0.233077	331.711
0.234423	332.667
0.235776	333.626
0.237137	334.587
0.238506	335.552
0.239883	336.519
0.241268	337.489
0.242661	338.462
0.244062	339.437
0.245471	340.416
0.246888	341.397
0.248313	342.381
0.249747	343.368
0.251189	344.358
0.252639	345.35
0.254097	346.346
0.255564	347.344
0.25704	348.345
0.258523	349.349
0.260016	350.356
0.261517	351.366
0.263027	352.379
0.264545	353.394
0.266073	354.413
0.267609	355.435
0.269153	356.459
0.270707	357.486
0.27227	358.517
0.273842	359.55
0.275423	360.587
0.277013	361.626
0.278612	362.668
0.280221	363.714
0.281838	364.762
0.283465	365.813
0.285102	366.868
0.286748	367.925
0.288403	368.986
0.290068	370.049
0.291743	371.116
0.293427	372.186
0.295121	373.258
0.296825	374.334
0.298538	375.413
0.300262	376.495
0.301995	377.581
0.303739	378.669
0.305492	379.76
0.307256	380.855
0.30903	381.953
0.310814	383.054
0.312608	384.158
0.314413	385.265
0.316228	386.376
0.318053	387.489
0.31989	388.606
0.321736	389.726
0.323594	390.85
0.325462	391.976
0.327341	393.106
0.32923	394.239
0.331131	395.375
0.333043	396.515
0.334965	397.658
0.336899	398.804
0.338844	399.954
0.3408	401.106
0.342768	402.263
0.344747	403.422
0.346737	404.585
0.348739	405.751
0.350752	406.921
0.352777	408.093
0.354813	409.27
0.356862	410.449
0.358922	411.632
0.360994	412.819
0.363078	414.009
0.365174	415.202
0.367282	416.399
0.369403	417.599
0.371535	418.803
0.37368	420.01
0.375837	421.221
0.378007	422.435
0.380189	423.652
0.382384	424.873
0.384592	426.098
0.386812	427.326
0.389045	428.558
0.391291	429.793
0.39355	431.032
0.395822	432.274
0.398107	433.52
0.400405	434.77
0.402717	436.023
0.405042	437.28
0.40738	438.54
0.409732	439.804
0.412098	441.072
0.414477	442.343
0.416869	443.618
0.419276	444.897
0.421697	446.179
0.424131	447.466
0.42658	448.755
0.429042	450.049
0.431519	451.346
0.43401	452.647
0.436516	453.952
0.439036	455.26
0.44157	456.572
0.44412	457.888
0.446684	459.208
0.449262	460.532
0.451856	461.859
0.454465	463.19
0.457088	464.526
0.459727	465.864
0.462381	467.207
0.46505	468.554
0.467735	469.905
0.470435	471.259
0.473151	472.617
0.475883	473.98
0.47863	475.346
0.481393	476.716
0.484172	478.09
0.486968	479.468
0.489779	480.85
0.492606	482.236
0.49545	483.626
0.49831	485.02
0.501187	486.418
0.504081	487.82
0.506991	489.226
0.509918	490.636
0.512861	492.05
0.515822	493.469
0.5188	494.891
0.521795	496.318
0.524807	497.748
0.527837	499.183
0.530884	500.622
0.533949	502.065
0.537032	503.512
0.540132	504.963
0.54325	506.419
0.546387	507.878
0.549541	509.342
0.552713	510.81
0.555904	512.283
0.559114	513.759
0.562341	515.24
0.565588	516.725
0.568853	518.215
0.572137	519.708
0.57544	521.206
0.578762	522.709
0.582103	524.215
0.585464	525.726
0.588844	527.242
0.592243	528.761
0.595662	530.285
0.599101	531.814
0.60256	533.347
0.606038	534.884
0.609537	536.426
0.613056	537.972
0.616595	539.523
