Stopping power dEdx from Ionisation for Be9[0.0] Z = 4 in Water, process name: ionIoni
E [MeV]	dEdx [MeV/mm]
0.001	21.9723
0.00100577	22.036
0.00101158	22.0998
0.00101742	22.1639
0.00102329	22.2281
0.0010292	22.2925
0.00103514	22.3572
0.00104112	22.4219
0.00104713	22.4869
0.00105317	22.5521
0.00105925	22.6174
0.00106537	22.683
0.00107152	22.7487
0.00107771	22.8146
0.00108393	22.8808
0.00109018	22.9471
0.00109648	23.0136
0.00110281	23.0802
0.00110917	23.1471
0.00111558	23.2142
0.00112202	23.2815
0.0011285	23.3489
0.00113501	23.4166
0.00114156	23.4844
0.00114815	23.5525
0.00115478	23.6207
0.00116145	23.6891
0.00116815	23.7578
0.0011749	23.8266
0.00118168	23.8956
0.0011885	23.9648
0.00119536	24.0343
0.00120226	24.1039
0.00120921	24.1737
0.00121619	24.2438
0.00122321	24.314
0.00123027	24.3844
0.00123737	24.4551
0.00124451	24.5259
0.0012517	24.5969
0.00125893	24.6682
0.00126619	24.7397
0.0012735	24.8113
0.00128086	24.8832
0.00128825	24.9553
0.00129569	25.0275
0.00130317	25.1
0.00131069	25.1727
0.00131826	25.2456
0.00132587	25.3188
0.00133352	25.3921
0.00134122	25.4656
0.00134896	25.5394
0.00135675	25.6133
0.00136458	25.6875
0.00137246	25.7619
0.00138038	25.8365
0.00138835	25.9113
0.00139637	25.9864
0.00140443	26.0616
0.00141254	26.1371
0.00142069	26.2128
0.00142889	26.2887
0.00143714	26.3648
0.00144544	26.4412
0.00145378	26.5177
0.00146218	26.5945
0.00147062	26.6715
0.00147911	26.7488
0.00148765	26.8262
0.00149624	26.9039
0.00150487	26.9818
0.00151356	27.0599
0.0015223	27.1383
0.00153109	27.2168
0.00153993	27.2956
0.00154882	27.3747
0.00155776	27.4539
0.00156675	27.5334
0.0015758	27.6131
0.00158489	27.6931
0.00159404	27.7732
0.00160325	27.8536
0.0016125	27.9343
0.00162181	28.0151
0.00163117	28.0963
0.00164059	28.1776
0.00165006	28.2592
0.00165959	28.341
0.00166917	28.423
0.0016788	28.5053
0.0016885	28.5878
0.00169824	28.6705
0.00170805	28.7535
0.00171791	28.8368
0.00172783	28.9202
0.0017378	29.004
0.00174783	29.0879
0.00175792	29.1721
0.00176807	29.2565
0.00177828	29.3412
0.00178855	29.4261
0.00179887	29.5113
0.00180926	29.5967
0.0018197	29.6824
0.00183021	29.7683
0.00184077	29.8544
0.0018514	29.9408
0.00186209	30.0275
0.00187284	30.1144
0.00188365	30.2016
0.00189452	30.289
0.00190546	30.3766
0.00191646	30.4645
0.00192752	30.5527
0.00193865	30.6411
0.00194984	30.7298
0.0019611	30.8187
0.00197242	30.9079
0.00198381	30.9973
0.00199526	31.087
0.00200678	31.177
0.00201837	31.2672
0.00203002	31.3577
0.00204174	31.4484
0.00205353	31.5394
0.00206538	31.6307
0.0020773	31.7222
0.0020893	31.814
0.00210136	31.906
0.00211349	31.9983
0.00212569	32.0909
0.00213796	32.1838
0.0021503	32.2769
0.00216272	32.3703
0.0021752	32.4639
0.00218776	32.5579
0.00220039	32.6521
0.00221309	32.7465
0.00222587	32.8413
0.00223872	32.9363
0.00225165	33.0316
0.00226464	33.1271
0.00227772	33.223
0.00229087	33.3191
0.00230409	33.4155
0.00231739	33.5121
0.00233077	33.6091
0.00234423	33.7063
0.00235776	33.8038
0.00237137	33.9016
0.00238506	33.9997
0.00239883	34.098
0.00241268	34.1967
0.00242661	34.2956
0.00244062	34.3948
0.00245471	34.4943
0.00246888	34.594
0.00248313	34.6941
0.00249747	34.7945
0.00251189	34.8951
0.00252639	34.996
0.00254097	35.0973
0.00255564	35.1988
0.0025704	35.3006
0.00258523	35.4027
0.00260016	35.5051
0.00261517	35.6078
0.00263027	35.7108
0.00264545	35.814
0.00266073	35.9176
0.00267609	36.0215
0.00269153	36.1257
0.00270707	36.2302
0.0027227	36.3349
0.00273842	36.44
0.00275423	36.5454
0.00277013	36.6511
0.00278612	36.7571
0.00280221	36.8634
0.00281838	36.97
0.00283465	37.0769
0.00285102	37.1841
0.00286748	37.2917
0.00288403	37.3995
0.00290068	37.5077
0.00291743	37.6161
0.00293427	37.7249
0.00295121	37.834
0.00296825	37.9434
0.00298538	38.0531
0.00300262	38.1631
0.00301995	38.2735
0.00303739	38.3842
0.00305492	38.4952
0.00307256	38.6065
0.0030903	38.7181
0.00310814	38.83
0.00312608	38.9423
0.00314413	39.0549
0.00316228	39.1678
0.00318053	39.2811
0.0031989	39.3947
0.00321736	39.5086
0.00323594	39.6228
0.00325462	39.7374
0.00327341	39.8522
0.0032923	39.9675
0.00331131	40.083
0.00333043	40.1989
0.00334965	40.3151
0.00336899	40.4317
0.00338844	40.5486
0.003408	40.6658
0.00342768	40.7834
0.00344747	40.9013
0.00346737	41.0195
0.00348739	41.1381
0.00350752	41.257
0.00352777	41.3763
0.00354813	41.4959
0.00356862	41.6159
0.00358922	41.7362
0.00360994	41.8568
0.00363078	41.9778
0.00365174	42.0992
0.00367282	42.2209
0.00369403	42.3429
0.00371535	42.4653
0.0037368	42.5881
0.00375837	42.7112
0.00378007	42.8346
0.00380189	42.9585
0.00382384	43.0826
0.00384592	43.2072
0.00386812	43.3321
0.00389045	43.4573
0.00391291	43.5829
0.0039355	43.7089
0.00395822	43.8352
0.00398107	43.9619
0.00400405	44.089
0.00402717	44.2164
0.00405042	44.3442
0.0040738	44.4724
0.00409732	44.6009
0.00412098	44.7298
0.00414477	44.8591
0.00416869	44.9888
0.00419276	45.1188
0.00421697	45.2492
0.00424131	45.38
0.0042658	45.5111
0.00429042	45.6427
0.00431519	45.7746
0.0043401	45.9069
0.00436516	46.0395
0.00439036	46.1726
0.0044157	46.306
0.0044412	46.4399
0.00446684	46.5741
0.00449262	46.7087
0.00451856	46.8437
0.00454465	46.979
0.00457088	47.1148
0.00459727	47.2509
0.00462381	47.3875
0.0046505	47.5244
0.00467735	47.6618
0.00470435	47.7995
0.00473151	47.9376
0.00475883	48.0761
0.0047863	48.2151
0.00481393	48.3544
0.00484172	48.4941
0.00486968	48.6343
0.00489779	48.8968
0.00492606	49.0378
0.0049545	49.1791
0.0049831	49.3209
0.00501187	49.463
0.00504081	49.6056
0.00506991	49.7486
0.00509918	49.892
0.00512861	50.0358
0.00515822	50.18
0.005188	50.3246
0.00521795	50.4697
0.00524807	50.6152
0.00527837	50.7611
0.00530884	50.9074
0.00533949	51.0541
0.00537032	51.2013
0.00540132	51.3488
0.0054325	51.4969
0.00546387	51.6453
0.00549541	51.7942
0.00552713	51.9434
0.00555904	52.0932
0.00559114	52.2433
0.00562341	52.3939
0.00565588	52.5449
0.00568853	52.6964
0.00572137	52.8483
0.0057544	53.0006
0.00578762	53.1534
0.00582103	53.3066
0.00585464	53.4602
0.00588844	53.6143
0.00592243	53.7688
0.00595662	53.9238
0.00599101	54.0793
0.0060256	54.2351
0.00606038	54.3915
0.00609537	54.5482
0.00613056	54.7055
0.00616595	54.8631
0.00620155	55.0213
0.00623735	55.1799
0.00627336	55.3389
0.00630957	55.4984
0.006346	55.6584
0.00638263	55.8188
0.00641948	55.9797
0.00645654	56.1411
0.00649382	56.3029
0.00653131	56.4652
0.00656901	56.6279
0.00660693	56.7912
0.00664508	56.9549
0.00668344	57.119
0.00672202	57.2837
0.00676083	57.4488
0.00679986	57.6144
0.00683912	57.7804
0.0068786	57.947
0.00691831	58.114
0.00695825	58.2815
0.00699842	58.4495
0.00703882	58.618
0.00707946	58.7869
0.00712033	58.9564
0.00716143	59.1263
0.00720278	59.2967
0.00724436	59.4676
0.00728618	59.639
0.00732825	59.811
0.00737055	59.9833
0.0074131	60.1562
0.0074559	60.3296
0.00749894	60.5035
0.00754223	60.6779
0.00758578	60.8528
0.00762957	61.0282
0.00767361	61.2041
0.00771792	61.3805
0.00776247	61.5575
0.00780728	61.7349
0.00785236	61.9128
0.00789769	62.0913
0.00794328	62.2703
0.00798914	62.4498
0.00803526	62.6298
0.00808165	62.8103
0.00812831	62.9913
0.00817523	63.1729
0.00822243	63.355
0.0082699	63.5376
0.00831764	63.7207
0.00836566	63.9044
0.00841395	64.0886
0.00846253	64.2733
0.00851138	64.4586
0.00856052	64.6444
0.00860994	64.8307
0.00865964	65.0176
0.00870964	65.205
0.00875992	65.3929
0.00881049	65.5814
0.00886135	65.7704
0.00891251	65.96
0.00896396	66.1501
0.00901571	66.3408
0.00906776	66.532
0.00912011	66.7238
0.00917276	66.9161
0.00922571	67.109
0.00927897	67.3024
0.00933254	67.4964
0.00938642	67.691
0.00944061	67.8861
0.00949511	68.0818
0.00954993	68.278
0.00960506	68.4748
0.00966051	68.6722
0.00971628	68.8701
0.00977237	69.0686
0.00982879	69.2677
0.00988553	69.4673
0.0099426	69.6676
0.01	69.8684
0.0100577	70.0698
0.0101158	70.2717
0.0101742	70.4743
0.0102329	70.6774
0.010292	70.8811
0.0103514	71.0854
0.0104112	71.2903
0.0104713	71.4958
0.0105317	71.7019
0.0105925	71.9086
0.0106537	72.1158
0.0107152	72.3237
0.0107771	72.5322
0.0108393	72.7412
0.0109018	72.9509
0.0109648	73.1612
0.0110281	73.3721
0.0110917	73.5835
0.0111558	73.7956
0.0112202	74.0083
0.011285	74.2217
0.0113501	74.4356
0.0114156	74.6502
0.0114815	74.8653
0.0115478	75.0811
0.0116145	75.2975
0.0116815	75.5146
0.011749	75.7322
0.0118168	75.9505
0.011885	76.1694
0.0119536	76.389
0.0120226	76.6092
0.0120921	76.83
0.0121619	77.0514
0.0122321	77.2735
0.0123027	77.4963
0.0123737	77.7196
0.0124451	77.9436
0.012517	78.1683
0.0125893	78.3936
0.0126619	78.6196
0.012735	78.8462
0.0128086	79.0735
0.0128825	79.3014
0.0129569	79.53
0.0130317	79.7592
0.0131069	79.9891
0.0131826	80.2196
0.0132587	80.4509
0.0133352	80.6828
0.0134122	80.9153
0.0134896	81.1485
0.0135675	81.3824
0.0136458	81.617
0.0137246	81.8523
0.0138038	82.0882
0.0138835	82.3248
0.0139637	82.5621
0.0140443	82.8001
0.0141254	83.0387
0.0142069	83.2781
0.0142889	83.5181
0.0143714	83.7589
0.0144544	84.0003
0.0145378	84.2424
0.0146218	84.4852
0.0147062	84.7287
0.0147911	84.973
0.0148765	85.2179
0.0149624	85.4635
0.0150487	85.7098
0.0151356	85.9569
0.015223	86.2047
0.0153109	86.4531
0.0153993	86.7023
0.0154882	86.9522
0.0155776	87.2029
0.0156675	87.4542
0.015758	87.7063
0.0158489	87.9591
0.0159404	88.2126
0.0160325	88.4669
0.016125	88.7219
0.0162181	88.9776
0.0163117	89.2341
0.0164059	89.4913
0.0165006	89.7492
0.0165959	90.0079
0.0166917	90.2674
0.016788	90.5275
0.016885	90.7885
0.0169824	91.0502
0.0170805	91.3126
0.0171791	91.5758
0.0172783	91.8398
0.017378	92.1045
0.0174783	92.37
0.0175792	92.6362
0.0176807	92.9032
0.0177828	93.171
0.0178855	93.4395
0.0179887	93.7089
0.0180926	93.979
0.018197	94.2499
0.0183021	94.5215
0.0184077	94.794
0.018514	95.0672
0.0186209	95.3412
0.0187284	95.616
0.0188365	95.8916
0.0189452	96.168
0.0190546	96.4452
0.0191646	96.7232
0.0192752	97.002
0.0193865	97.2816
0.0194984	97.562
0.019611	97.8432
0.0197242	98.1252
0.0198381	98.4081
0.0199526	98.6917
0.0200678	98.9762
0.0201837	99.2615
0.0203002	99.5476
0.0204174	99.8345
0.0205353	100.122
0.0206538	100.411
0.020773	100.7
0.020893	100.991
0.0210136	101.282
0.0211349	101.574
0.0212569	101.866
0.0213796	102.16
0.021503	102.454
0.0216272	102.75
0.021752	103.046
0.0218776	103.343
0.0220039	103.641
0.0221309	103.94
0.0222587	104.239
0.0223872	104.54
0.0225165	104.841
0.0226464	105.143
0.0227772	105.446
0.0229087	105.75
0.0230409	106.055
0.0231739	106.361
0.0233077	106.667
0.0234423	106.975
0.0235776	107.283
0.0237137	107.592
0.0238506	107.902
0.0239883	108.213
0.0241268	108.525
0.0242661	108.838
0.0244062	109.152
0.0245471	109.466
0.0246888	109.782
0.0248313	110.098
0.0249747	110.416
0.0251189	110.734
0.0252639	111.053
0.0254097	111.373
0.0255564	111.694
0.025704	112.016
0.0258523	112.339
0.0260016	112.663
0.0261517	112.988
0.0263027	113.313
0.0264545	113.64
0.0266073	113.967
0.0267609	114.296
0.0269153	114.625
0.0270707	114.956
0.027227	115.287
0.0273842	115.619
0.0275423	115.953
0.0277013	116.287
0.0278612	116.622
0.0280221	116.958
0.0281838	117.295
0.0283465	117.633
0.0285102	117.972
0.0286748	118.313
0.0288403	118.654
0.0290068	118.996
0.0291743	119.339
0.0293427	119.683
0.0295121	120.027
0.0296825	120.373
0.0298538	120.72
0.0300262	121.068
0.0301995	121.417
0.0303739	121.767
0.0305492	122.118
0.0307256	122.47
0.030903	122.823
0.0310814	123.177
0.0312608	123.532
0.0314413	123.888
0.0316228	124.246
0.0318053	124.604
0.031989	124.963
0.0321736	125.323
0.0323594	125.684
0.0325462	126.046
0.0327341	126.41
0.032923	126.774
0.0331131	127.14
0.0333043	127.506
0.0334965	127.874
0.0336899	128.242
0.0338844	128.612
0.03408	128.982
0.0342768	129.354
0.0344747	129.727
0.0346737	130.101
0.0348739	130.476
0.0350752	130.852
0.0352777	131.229
0.0354813	131.608
0.0356862	131.987
0.0358922	132.367
0.0360994	132.749
0.0363078	133.131
0.0365174	133.515
0.0367282	133.9
0.0369403	134.286
0.0371535	134.673
0.037368	135.061
0.0375837	135.451
0.0378007	135.841
0.0380189	136.232
0.0382384	136.625
0.0384592	137.019
0.0386812	137.414
0.0389045	137.81
0.0391291	138.207
0.039355	138.606
0.0395822	139.005
0.0398107	139.406
0.0400405	139.808
0.0402717	140.211
0.0405042	140.615
0.040738	141.02
0.0409732	141.426
0.0412098	141.834
0.0414477	142.243
0.0416869	142.653
0.0419276	143.064
0.0421697	143.476
0.0424131	143.89
0.042658	144.305
0.0429042	144.721
0.0431519	145.138
0.043401	145.556
0.0436516	145.976
0.0439036	146.397
0.044157	146.818
0.044412	147.242
0.0446684	147.666
0.0449262	148.092
0.0451856	148.519
0.0454465	148.947
0.0457088	149.376
0.0459727	149.807
0.0462381	150.238
0.046505	150.671
0.0467735	151.106
0.0470435	151.541
0.0473151	151.978
0.0475883	152.416
0.047863	152.855
0.0481393	153.296
0.0484172	153.738
0.0486968	154.181
0.0489779	154.625
0.0492606	155.071
0.049545	155.518
0.049831	155.966
0.0501187	156.416
0.0504081	156.867
0.0506991	157.319
0.0509918	157.772
0.0512861	158.227
0.0515822	158.683
0.05188	159.14
0.0521795	159.599
0.0524807	160.059
0.0527837	160.521
0.0530884	160.983
0.0533949	161.447
0.0537032	161.913
0.0540132	162.379
0.054325	162.847
0.0546387	163.317
0.0549541	163.787
0.0552713	164.26
0.0555904	164.733
0.0559114	165.208
0.0562341	165.684
0.0565588	166.162
0.0568853	166.641
0.0572137	167.121
0.057544	167.603
0.0578762	168.086
0.0582103	168.57
0.0585464	169.056
0.0588844	169.543
0.0592243	170.032
0.0595662	170.522
0.0599101	171.014
0.060256	171.507
0.0606038	172.001
0.0609537	172.497
0.0613056	172.994
0.0616595	173.493
0.0620155	173.993
0.0623735	174.494
0.0627336	174.997
0.0630957	175.501
0.06346	176.007
0.0638263	176.515
0.0641948	177.023
0.0645654	177.534
0.0649382	178.045
0.0653131	178.559
0.0656901	179.073
0.0660693	179.589
0.0664508	180.107
0.0668344	180.626
0.0672202	181.147
0.0676083	181.669
0.0679986	182.193
0.0683912	182.718
0.068786	183.244
0.0691831	183.773
0.0695825	184.302
0.0699842	184.834
0.0703882	185.366
0.0707946	185.901
0.0712033	186.436
0.0716143	186.974
0.0720278	187.513
0.0724436	188.053
0.0728618	188.595
0.0732825	189.139
0.0737055	189.684
0.074131	190.231
0.074559	190.779
0.0749894	191.329
0.0754223	191.88
0.0758578	192.434
0.0762957	192.988
0.0767361	193.544
0.0771792	194.102
0.0776247	194.662
0.0780728	195.223
0.0785236	195.786
0.0789769	196.35
0.0794328	196.916
0.0798914	197.483
0.0803526	198.053
0.0808165	198.624
0.0812831	199.196
0.0817523	199.77
0.0822243	200.346
0.082699	200.923
0.0831764	201.503
0.0836566	202.083
0.0841395	202.666
0.0846253	203.25
0.0851138	203.836
0.0856052	204.423
0.0860994	205.013
0.0865964	205.604
0.0870964	206.196
0.0875992	206.791
0.0881049	207.387
0.0886135	207.984
0.0891251	208.584
0.0896396	209.185
0.0901571	209.788
0.0906776	210.393
0.0912011	210.999
0.0917276	211.607
0.0922571	212.217
0.0927897	212.829
0.0933254	213.442
0.0938642	214.058
0.0944061	214.675
0.0949511	215.293
0.0954993	215.914
0.0960506	216.536
0.0966051	217.16
0.0971628	217.786
0.0977237	218.414
0.0982879	219.044
0.0988553	219.675
0.099426	220.308
0.1	220.943
0.100577	221.58
0.101158	222.219
0.101742	222.859
0.102329	223.502
0.10292	224.146
0.103514	224.792
0.104112	225.44
0.104713	226.09
0.105317	226.741
0.105925	227.395
0.106537	228.05
0.107152	228.708
0.107771	229.367
0.108393	230.028
0.109018	230.691
0.109648	231.356
0.110281	232.023
0.110917	232.692
0.111558	233.362
0.112202	234.035
0.11285	234.71
0.113501	235.386
0.114156	236.065
0.114815	236.745
0.115478	237.427
0.116145	238.112
0.116815	238.798
0.11749	239.486
0.118168	240.177
0.11885	240.869
0.119536	241.563
0.120226	242.259
0.120921	242.958
0.121619	243.658
0.122321	244.36
0.123027	245.065
0.123737	245.771
0.124451	246.479
0.12517	247.19
0.125893	247.902
0.126619	248.617
0.12735	249.334
0.128086	250.052
0.128825	250.773
0.129569	251.496
0.130317	252.221
0.131069	252.948
0.131826	253.677
0.132587	254.408
0.133352	255.141
0.134122	255.877
0.134896	256.614
0.135675	257.354
0.136458	258.096
0.137246	258.84
0.138038	259.586
0.138835	260.334
0.139637	261.084
0.140443	261.837
0.141254	262.592
0.142069	263.348
0.142889	264.107
0.143714	264.869
0.144544	265.632
0.145378	266.398
0.146218	267.166
0.147062	267.936
0.147911	268.708
0.148765	269.483
0.149624	270.259
0.150487	271.038
0.151356	271.82
0.15223	272.603
0.153109	273.389
0.153993	274.177
0.154882	274.967
0.155776	275.76
0.156675	276.554
0.15758	277.352
0.158489	278.151
0.159404	278.953
0.160325	279.757
0.16125	280.563
0.162181	281.372
0.163117	282.183
0.164059	282.996
0.165006	283.812
0.165959	284.63
0.166917	285.45
0.16788	286.273
0.16885	287.098
0.169824	287.926
0.170805	288.756
0.171791	289.588
0.172783	290.423
0.17378	291.26
0.174783	292.099
0.175792	292.941
0.176807	293.786
0.177828	294.633
0.178855	295.482
0.179887	296.333
0.180926	297.188
0.18197	298.044
0.183021	298.903
0.184077	299.765
0.18514	300.629
0.186209	301.495
0.187284	302.364
0.188365	303.236
0.189452	304.11
0.190546	304.987
0.191646	305.866
0.192752	306.747
0.193865	307.631
0.194984	308.518
0.19611	309.407
0.197242	310.299
0.198381	311.194
0.199526	312.091
0.200678	312.99
0.201837	313.892
0.203002	314.797
0.204174	315.704
0.205353	316.614
0.206538	317.527
0.20773	318.442
0.20893	319.36
0.210136	320.281
0.211349	321.204
0.212569	322.13
0.213796	323.058
0.21503	323.989
0.216272	324.923
0.21752	325.86
0.218776	326.799
0.220039	327.741
0.221309	328.686
0.222587	329.633
0.223872	330.583
0.225165	331.524
0.226464	332.382
0.227772	333.245
0.229087	334.112
0.230409	334.983
0.231739	335.859
0.233077	336.738
0.234423	337.622
0.235776	338.509
0.237137	339.401
0.238506	340.297
0.239883	341.198
0.241268	342.102
0.242661	343.01
0.244062	343.923
0.245471	344.84
0.246888	345.761
0.248313	346.686
0.249747	347.615
0.251189	348.548
0.252639	349.485
0.254097	350.427
0.255564	351.372
0.25704	352.322
0.258523	353.276
0.260016	354.233
0.261517	355.195
0.263027	356.161
0.264545	357.13
0.266073	358.104
0.267609	359.082
0.269153	360.064
0.270707	361.011
0.27227	361.916
0.273842	362.824
0.275423	363.735
0.277013	364.65
0.278612	365.568
0.280221	366.49
0.281838	367.415
0.283465	368.343
0.285102	369.274
0.286748	370.209
0.288403	371.147
0.290068	372.088
0.291743	373.032
0.293427	373.979
0.295121	374.929
0.296825	375.882
0.298538	376.838
0.300262	377.797
0.301995	378.758
0.303739	379.723
0.305492	380.69
0.307256	381.661
0.30903	382.633
0.310814	383.609
0.312608	384.587
0.314413	385.567
0.316228	386.55
0.318053	387.536
0.31989	388.524
0.321736	389.514
0.323594	390.506
0.325462	391.501
0.327341	392.497
0.32923	393.496
0.331131	394.497
0.333043	395.499
0.334965	396.503
0.336899	397.51
0.338844	398.517
0.3408	399.527
0.342768	400.538
0.344747	401.55
0.346737	402.564
0.348739	403.578
0.350752	404.595
0.352777	405.612
0.354813	406.63
0.356862	407.649
0.358922	408.668
0.360994	409.678
0.363078	410.676
0.365174	411.675
0.367282	412.674
0.369403	413.673
0.371535	414.673
0.37368	415.673
0.375837	416.673
0.378007	417.674
0.380189	418.675
0.382384	419.676
0.384592	420.677
0.386812	421.678
0.389045	422.679
0.391291	423.681
0.39355	424.682
0.395822	425.684
0.398107	426.685
0.400405	427.686
0.402717	428.687
0.405042	429.688
0.40738	430.689
0.409732	431.69
0.412098	432.691
0.414477	433.691
0.416869	434.691
0.419276	435.69
0.421697	436.69
0.424131	437.688
0.42658	438.687
0.429042	439.685
0.431519	440.683
0.43401	441.68
0.436516	442.676
0.439036	443.672
0.44157	444.668
0.44412	445.663
0.446684	446.657
0.449262	447.651
0.451856	448.643
0.454465	449.634
0.457088	450.625
0.459727	451.614
0.462381	452.603
0.46505	453.591
0.467735	454.578
0.470435	455.564
0.473151	456.549
0.475883	457.533
0.47863	458.516
0.481393	459.497
0.484172	460.478
0.486968	461.457
0.489779	462.435
0.492606	463.411
0.49545	464.386
0.49831	465.359
0.501187	466.331
0.504081	467.302
0.506991	468.271
0.509918	469.238
0.512861	470.204
0.515822	471.167
0.5188	472.129
0.521795	473.089
0.524807	474.048
0.527837	475.004
0.530884	475.959
0.533949	476.911
0.537032	477.861
0.540132	478.81
0.54325	479.756
0.546387	480.7
0.549541	481.641
0.552713	482.581
0.555904	483.517
0.559114	484.452
0.562341	485.384
0.565588	486.314
0.568853	487.241
0.572137	488.165
0.57544	489.087
0.578762	490.006
0.582103	490.922
0.585464	491.835
0.588844	492.745
0.592243	493.653
0.595662	494.557
0.599101	495.458
0.60256	496.357
0.606038	497.252
0.609537	498.144
0.613056	499.032
