Stopping power dEdx from Ionisation for C12[0.0] Z = 6 in G4_TISSUE_SOFT_ICRP, process name: ionIoni
E [MeV]	dEdx [MeV/mm]
0.001	40.2919
0.00100577	40.408
0.00101158	40.5245
0.00101742	40.6413
0.00102329	40.7584
0.0010292	40.8759
0.00103514	40.9937
0.00104112	41.1119
0.00104713	41.2304
0.00105317	41.3492
0.00105925	41.4684
0.00106537	41.5879
0.00107152	41.7078
0.00107771	41.828
0.00108393	41.9486
0.00109018	42.0695
0.00109648	42.1908
0.00110281	42.3124
0.00110917	42.4343
0.00111558	42.5566
0.00112202	42.6793
0.0011285	42.8023
0.00113501	42.9257
0.00114156	43.0494
0.00114815	43.1735
0.00115478	43.298
0.00116145	43.4228
0.00116815	43.5479
0.0011749	43.6734
0.00118168	43.7993
0.0011885	43.9256
0.00119536	44.0522
0.00120226	44.1792
0.00120921	44.3065
0.00121619	44.4342
0.00122321	44.5623
0.00123027	44.6907
0.00123737	44.8195
0.00124451	44.9487
0.0012517	45.0783
0.00125893	45.2082
0.00126619	45.3385
0.0012735	45.4692
0.00128086	45.6003
0.00128825	45.7317
0.00129569	45.8635
0.00130317	45.9957
0.00131069	46.1283
0.00131826	46.2613
0.00132587	46.3946
0.00133352	46.5283
0.00134122	46.6624
0.00134896	46.7969
0.00135675	46.9318
0.00136458	47.0671
0.00137246	47.2028
0.00138038	47.3388
0.00138835	47.4753
0.00139637	47.6121
0.00140443	47.7493
0.00141254	47.887
0.00142069	48.025
0.00142889	48.1634
0.00143714	48.3023
0.00144544	48.4415
0.00145378	48.5811
0.00146218	48.7211
0.00147062	48.8616
0.00147911	49.0024
0.00148765	49.1437
0.00149624	49.2853
0.00150487	49.4274
0.00151356	49.5698
0.0015223	49.7127
0.00153109	49.856
0.00153993	49.9997
0.00154882	50.1438
0.00155776	50.2884
0.00156675	50.4333
0.0015758	50.5787
0.00158489	50.7245
0.00159404	50.8707
0.00160325	51.0173
0.0016125	51.1643
0.00162181	51.3118
0.00163117	51.4597
0.00164059	51.608
0.00165006	51.7568
0.00165959	51.906
0.00166917	52.0556
0.0016788	52.2056
0.0016885	52.3561
0.00169824	52.507
0.00170805	52.6584
0.00171791	52.8102
0.00172783	52.9624
0.0017378	53.115
0.00174783	53.2681
0.00175792	53.4217
0.00176807	53.5756
0.00177828	53.7301
0.00178855	53.8849
0.00179887	54.0403
0.00180926	54.196
0.0018197	54.3522
0.00183021	54.5089
0.00184077	54.666
0.0018514	54.8236
0.00186209	54.9816
0.00187284	55.1401
0.00188365	55.299
0.00189452	55.4584
0.00190546	55.6183
0.00191646	55.7786
0.00192752	55.9393
0.00193865	56.1006
0.00194984	56.2623
0.0019611	56.4245
0.00197242	56.5871
0.00198381	56.7502
0.00199526	56.9138
0.00200678	57.0778
0.00201837	57.2423
0.00203002	57.4073
0.00204174	57.5728
0.00205353	57.7388
0.00206538	57.9052
0.0020773	58.0721
0.0020893	58.2395
0.00210136	58.4073
0.00211349	58.5757
0.00212569	58.7445
0.00213796	58.9139
0.0021503	59.0837
0.00216272	59.254
0.0021752	59.4248
0.00218776	59.596
0.00220039	59.7678
0.00221309	59.9401
0.00222587	60.1129
0.00223872	60.2861
0.00225165	60.4599
0.00226464	60.6342
0.00227772	60.8089
0.00229087	60.9842
0.00230409	61.16
0.00231739	61.3363
0.00233077	61.5131
0.00234423	61.6904
0.00235776	61.8682
0.00237137	62.0465
0.00238506	62.2254
0.00239883	62.4047
0.00241268	62.5846
0.00242661	62.765
0.00244062	62.9459
0.00245471	63.1273
0.00246888	63.3093
0.00248313	63.4918
0.00249747	63.6748
0.00251189	63.8583
0.00252639	64.0424
0.00254097	64.227
0.00255564	64.4121
0.0025704	64.5978
0.00258523	64.7839
0.00260016	64.9707
0.00261517	65.158
0.00263027	65.3458
0.00264545	65.5341
0.00266073	65.723
0.00267609	65.9124
0.00269153	66.1024
0.00270707	66.293
0.0027227	66.484
0.00273842	66.6757
0.00275423	66.8679
0.00277013	67.0606
0.00278612	67.2539
0.00280221	67.4477
0.00281838	67.6422
0.00283465	67.8371
0.00285102	68.0327
0.00286748	68.2287
0.00288403	68.4254
0.00290068	68.6226
0.00291743	68.8204
0.00293427	69.0188
0.00295121	69.2177
0.00296825	69.4173
0.00298538	69.6173
0.00300262	69.8167
0.00301995	70.0131
0.00303739	70.21
0.00305492	70.4075
0.00307256	70.6056
0.0030903	70.8042
0.00310814	71.0034
0.00312608	71.2032
0.00314413	71.4036
0.00316228	71.6045
0.00318053	71.806
0.0031989	72.0081
0.00321736	72.2108
0.00323594	72.4141
0.00325462	72.6179
0.00327341	72.8224
0.0032923	73.0274
0.00331131	73.233
0.00333043	73.4392
0.00334965	73.646
0.00336899	73.8534
0.00338844	74.0614
0.003408	74.27
0.00342768	74.4792
0.00344747	74.689
0.00346737	74.8994
0.00348739	75.1104
0.00350752	75.322
0.00352777	75.5342
0.00354813	75.7471
0.00356862	75.9605
0.00358922	76.1746
0.00360994	76.3893
0.00363078	76.6046
0.00365174	76.8205
0.00367282	77.0371
0.00369403	77.2542
0.00371535	77.472
0.0037368	77.6905
0.00375837	77.9095
0.00378007	78.1292
0.00380189	78.3495
0.00382384	78.5705
0.00384592	78.7921
0.00386812	79.0143
0.00389045	79.2372
0.00391291	79.4607
0.0039355	79.6849
0.00395822	79.9097
0.00398107	80.1352
0.00400405	80.3613
0.00402717	80.5881
0.00405042	80.8155
0.0040738	81.0436
0.00409732	81.2723
0.00412098	81.5017
0.00414477	81.7318
0.00416869	81.9625
0.00419276	82.1939
0.00421697	82.4259
0.00424131	82.6587
0.0042658	82.8921
0.00429042	83.1261
0.00431519	83.3609
0.0043401	83.5963
0.00436516	83.8324
0.00439036	84.0692
0.0044157	84.3067
0.0044412	84.5449
0.00446684	84.7838
0.00449262	85.0233
0.00451856	85.2635
0.00454465	85.5045
0.00457088	85.7461
0.00459727	85.9884
0.00462381	86.2315
0.0046505	86.4752
0.00467735	86.7196
0.00470435	86.9648
0.00473151	87.2106
0.00475883	87.4572
0.0047863	87.7045
0.00481393	87.9525
0.00484172	88.2012
0.00486968	88.4506
0.00489779	88.7008
0.00492606	88.9517
0.0049545	89.2033
0.0049831	89.4556
0.00501187	89.7087
0.00504081	89.9625
0.00506991	90.217
0.00509918	90.4723
0.00512861	90.7283
0.00515822	90.9851
0.005188	91.2426
0.00521795	91.5008
0.00524807	91.7598
0.00527837	92.0196
0.00530884	92.2801
0.00533949	92.5413
0.00537032	92.8033
0.00540132	93.0661
0.0054325	93.3296
0.00546387	93.5939
0.00549541	93.859
0.00552713	94.1248
0.00555904	94.3914
0.00559114	94.6588
0.00562341	94.9269
0.00565588	95.1958
0.00568853	95.4655
0.00572137	95.736
0.0057544	96.0073
0.00578762	96.2794
0.00582103	96.5522
0.00585464	96.8258
0.00588844	97.1003
0.00592243	97.3755
0.00595662	97.6515
0.00599101	97.9284
0.0060256	98.206
0.00606038	98.4845
0.00609537	98.7637
0.00613056	99.0438
0.00616595	99.3246
0.00620155	99.6063
0.00623735	99.8888
0.00627336	100.172
0.00630957	100.456
0.006346	100.741
0.00638263	101.027
0.00641948	101.314
0.00645654	101.601
0.00649382	101.889
0.00653131	102.179
0.00656901	102.469
0.00660693	102.759
0.00664508	103.051
0.00668344	103.344
0.00672202	103.637
0.00676083	103.931
0.00679986	104.226
0.00683912	104.522
0.0068786	104.819
0.00691831	105.117
0.00695825	105.415
0.00699842	105.715
0.00703882	106.015
0.00707946	106.316
0.00712033	106.618
0.00716143	106.921
0.00720278	107.225
0.00724436	107.529
0.00728618	107.835
0.00732825	108.141
0.00737055	108.449
0.0074131	108.757
0.0074559	109.066
0.00749894	109.376
0.00754223	109.687
0.00758578	109.999
0.00762957	110.311
0.00767361	110.625
0.00771792	110.94
0.00776247	111.255
0.00780728	111.571
0.00785236	111.889
0.00789769	112.207
0.00794328	112.526
0.00798914	112.846
0.00803526	113.167
0.00808165	113.489
0.00812831	113.812
0.00817523	114.136
0.00822243	114.461
0.0082699	114.786
0.00831764	115.113
0.00836566	115.441
0.00841395	115.769
0.00846253	116.099
0.00851138	116.429
0.00856052	116.761
0.00860994	117.093
0.00865964	117.427
0.00870964	117.761
0.00875992	118.096
0.00881049	118.433
0.00886135	118.77
0.00891251	119.108
0.00896396	119.448
0.00901571	119.788
0.00906776	120.129
0.00912011	120.471
0.00917276	120.815
0.00922571	121.159
0.00927897	121.504
0.00933254	121.851
0.00938642	122.198
0.00944061	122.546
0.00949511	122.895
0.00954993	123.246
0.00960506	123.597
0.00966051	123.95
0.00971628	124.303
0.00977237	124.657
0.00982879	125.013
0.00988553	125.369
0.0099426	125.727
0.01	126.086
0.0100577	126.445
0.0101158	126.806
0.0101742	127.168
0.0102329	127.531
0.010292	127.894
0.0103514	128.259
0.0104112	128.625
0.0104713	128.992
0.0105317	129.361
0.0105925	129.73
0.0106537	130.1
0.0107152	130.472
0.0107771	130.844
0.0108393	131.218
0.0109018	131.592
0.0109648	131.968
0.0110281	132.345
0.0110917	132.723
0.0111558	133.102
0.0112202	133.482
0.011285	133.863
0.0113501	134.246
0.0114156	134.629
0.0114815	135.014
0.0115478	135.4
0.0116145	135.787
0.0116815	136.175
0.011749	136.564
0.0118168	136.954
0.011885	137.346
0.0119536	137.738
0.0120226	138.018
0.0120921	138.11
0.0121619	138.202
0.0122321	138.296
0.0123027	138.391
0.0123737	138.486
0.0124451	138.583
0.012517	138.68
0.0125893	138.779
0.0126619	138.878
0.012735	138.978
0.0128086	139.079
0.0128825	139.181
0.0129569	139.283
0.0130317	139.387
0.0131069	139.491
0.0131826	139.597
0.0132587	139.703
0.0133352	139.81
0.0134122	139.917
0.0134896	140.026
0.0135675	140.135
0.0136458	140.245
0.0137246	140.355
0.0138038	140.467
0.0138835	140.579
0.0139637	140.692
0.0140443	140.806
0.0141254	140.92
0.0142069	141.035
0.0142889	141.151
0.0143714	141.267
0.0144544	141.384
0.0145378	141.502
0.0146218	141.62
0.0147062	141.739
0.0147911	141.859
0.0148765	141.979
0.0149624	142.1
0.0150487	142.222
0.0151356	142.344
0.015223	142.467
0.0153109	142.591
0.0153993	142.715
0.0154882	142.839
0.0155776	142.965
0.0156675	143.091
0.015758	143.217
0.0158489	143.344
0.0159404	143.472
0.0160325	143.6
0.016125	143.729
0.0162181	143.858
0.0163117	143.988
0.0164059	144.118
0.0165006	144.249
0.0165959	144.38
0.0166917	144.512
0.016788	144.645
0.016885	144.778
0.0169824	144.912
0.0170805	145.046
0.0171791	145.18
0.0172783	145.316
0.017378	145.451
0.0174783	145.587
0.0175792	145.724
0.0176807	145.861
0.0177828	145.999
0.0178855	146.137
0.0179887	146.276
0.0180926	146.415
0.018197	146.555
0.0183021	146.695
0.0184077	146.835
0.018514	146.977
0.0186209	147.118
0.0187284	147.26
0.0188365	147.403
0.0189452	147.546
0.0190546	147.69
0.0191646	147.834
0.0192752	147.978
0.0193865	148.123
0.0194984	148.269
0.019611	148.414
0.0197242	148.561
0.0198381	148.708
0.0199526	148.855
0.0200678	149.003
0.0201837	149.151
0.0203002	149.3
0.0204174	149.449
0.0205353	149.599
0.0206538	149.749
0.020773	149.9
0.020893	150.051
0.0210136	150.202
0.0211349	150.354
0.0212569	150.507
0.0213796	150.66
0.021503	150.813
0.0216272	150.967
0.021752	151.121
0.0218776	151.276
0.0220039	151.431
0.0221309	151.587
0.0222587	151.743
0.0223872	151.9
0.0225165	152.057
0.0226464	152.215
0.0227772	152.373
0.0229087	152.532
0.0230409	152.691
0.0231739	152.85
0.0233077	153.01
0.0234423	153.171
0.0235776	153.332
0.0237137	153.494
0.0238506	153.656
0.0239883	153.818
0.0241268	153.981
0.0242661	154.144
0.0244062	154.308
0.0245471	154.473
0.0246888	154.638
0.0248313	154.803
0.0249747	154.969
0.0251189	155.136
0.0252639	155.303
0.0254097	155.47
0.0255564	155.638
0.025704	155.806
0.0258523	155.975
0.0260016	156.145
0.0261517	156.315
0.0263027	156.485
0.0264545	156.656
0.0266073	156.828
0.0267609	157
0.0269153	157.173
0.0270707	157.346
0.027227	157.52
0.0273842	157.694
0.0275423	157.869
0.0277013	158.044
0.0278612	158.22
0.0280221	158.396
0.0281838	158.573
0.0283465	158.751
0.0285102	158.929
0.0286748	159.107
0.0288403	159.287
0.0290068	159.466
0.0291743	159.647
0.0293427	159.828
0.0295121	160.009
0.0296825	160.191
0.0298538	160.374
0.0300262	160.557
0.0301995	160.741
0.0303739	160.925
0.0305492	161.11
0.0307256	161.296
0.030903	161.482
0.0310814	161.669
0.0312608	161.856
0.0314413	162.044
0.0316228	162.233
0.0318053	162.422
0.031989	162.612
0.0321736	162.802
0.0323594	162.993
0.0325462	163.185
0.0327341	163.377
0.032923	163.57
0.0331131	163.764
0.0333043	163.958
0.0334965	164.153
0.0336899	164.349
0.0338844	164.545
0.03408	164.742
0.0342768	164.939
0.0344747	165.138
0.0346737	165.336
0.0348739	165.536
0.0350752	165.736
0.0352777	165.937
0.0354813	166.139
0.0356862	166.341
0.0358922	166.544
0.0360994	166.748
0.0363078	166.952
0.0365174	167.158
0.0367282	167.363
0.0369403	167.57
0.0371535	167.777
0.037368	167.985
0.0375837	168.194
0.0378007	168.403
0.0380189	168.613
0.0382384	168.824
0.0384592	169.036
0.0386812	169.248
0.0389045	169.462
0.0391291	169.676
0.039355	169.89
0.0395822	170.106
0.0398107	170.322
0.0400405	170.539
0.0402717	170.757
0.0405042	170.975
0.040738	171.194
0.0409732	171.415
0.0412098	171.635
0.0414477	171.857
0.0416869	172.08
0.0419276	172.303
0.0421697	172.527
0.0424131	172.752
0.042658	172.978
0.0429042	173.204
0.0431519	173.432
0.043401	173.66
0.0436516	173.889
0.0439036	174.119
0.044157	174.349
0.044412	174.581
0.0446684	174.813
0.0449262	175.047
0.0451856	175.281
0.0454465	175.516
0.0457088	175.752
0.0459727	175.989
0.0462381	176.226
0.046505	176.465
0.0467735	176.704
0.0470435	176.944
0.0473151	177.186
0.0475883	177.428
0.047863	177.671
0.0481393	177.915
0.0484172	178.159
0.0486968	178.405
0.0489779	178.652
0.0492606	178.899
0.049545	179.148
0.049831	179.397
0.0501187	179.648
0.0504081	179.899
0.0506991	180.151
0.0509918	180.404
0.0512861	180.659
0.0515822	180.914
0.05188	181.17
0.0521795	181.427
0.0524807	181.685
0.0527837	181.944
0.0530884	182.204
0.0533949	182.465
0.0537032	182.727
0.0540132	182.99
0.054325	183.254
0.0546387	183.519
0.0549541	183.785
0.0552713	184.052
0.0555904	184.32
0.0559114	184.589
0.0562341	184.859
0.0565588	185.13
0.0568853	185.402
0.0572137	185.676
0.057544	185.95
0.0578762	186.225
0.0582103	186.501
0.0585464	186.779
0.0588844	187.057
0.0592243	187.337
0.0595662	187.617
0.0599101	187.899
0.060256	188.182
0.0606038	188.466
0.0609537	188.75
0.0613056	189.036
0.0616595	189.324
0.0620155	189.612
0.0623735	189.901
0.0627336	190.191
0.0630957	190.483
0.06346	190.776
0.0638263	191.069
0.0641948	191.364
0.0645654	191.66
0.0649382	191.957
0.0653131	192.256
0.0656901	192.555
0.0660693	192.856
0.0664508	193.158
0.0668344	193.46
0.0672202	193.764
0.0676083	194.07
0.0679986	194.376
0.0683912	194.684
0.068786	194.992
0.0691831	195.302
0.0695825	195.613
0.0699842	195.926
0.0703882	196.239
0.0707946	196.554
0.0712033	196.87
0.0716143	197.187
0.0720278	197.505
0.0724436	197.825
0.0728618	198.146
0.0732825	198.468
0.0737055	198.791
0.074131	199.115
0.074559	199.441
0.0749894	199.768
0.0754223	200.096
0.0758578	200.426
0.0762957	200.756
0.0767361	201.088
0.0771792	201.421
0.0776247	201.756
0.0780728	202.092
0.0785236	202.429
0.0789769	202.767
0.0794328	203.106
0.0798914	203.447
0.0803526	203.789
0.0808165	204.133
0.0812831	204.478
0.0817523	204.824
0.0822243	205.171
0.082699	205.52
0.0831764	205.87
0.0836566	206.221
0.0841395	206.574
0.0846253	206.928
0.0851138	207.283
0.0856052	207.639
0.0860994	207.997
0.0865964	208.357
0.0870964	208.717
0.0875992	209.079
0.0881049	209.443
0.0886135	209.807
0.0891251	210.173
0.0896396	210.541
0.0901571	210.91
0.0906776	211.28
0.0912011	211.651
0.0917276	212.024
0.0922571	212.398
0.0927897	212.774
0.0933254	213.151
0.0938642	213.53
0.0944061	213.91
0.0949511	214.291
0.0954993	214.674
0.0960506	215.058
0.0966051	215.443
0.0971628	215.83
0.0977237	216.218
0.0982879	216.608
0.0988553	216.999
0.099426	217.392
0.1	217.786
0.100577	218.181
0.101158	218.578
0.101742	218.977
0.102329	219.377
0.10292	219.778
0.103514	220.181
0.104112	220.585
0.104713	220.99
0.105317	221.398
0.105925	221.806
0.106537	222.216
0.107152	222.628
0.107771	223.041
0.108393	223.455
0.109018	223.871
0.109648	224.289
0.110281	224.707
0.110917	225.128
0.111558	225.55
0.112202	225.973
0.11285	226.398
0.113501	226.825
0.114156	227.253
0.114815	227.682
0.115478	228.113
0.116145	228.545
0.116815	228.979
0.11749	229.415
0.118168	229.852
0.11885	230.291
0.119536	230.731
0.120226	231.172
0.120921	231.615
0.121619	232.06
0.122321	232.506
0.123027	232.954
0.123737	233.404
0.124451	233.854
0.12517	234.307
0.125893	234.761
0.126619	235.216
0.12735	235.673
0.128086	236.132
0.128825	236.592
0.129569	237.054
0.130317	237.517
0.131069	237.982
0.131826	238.449
0.132587	238.917
0.133352	239.387
0.134122	239.858
0.134896	240.33
0.135675	240.805
0.136458	241.281
0.137246	241.758
0.138038	242.237
0.138835	242.718
0.139637	243.2
0.140443	243.684
0.141254	244.17
0.142069	244.657
0.142889	245.145
0.143714	245.636
0.144544	246.127
0.145378	246.621
0.146218	247.116
0.147062	247.613
0.147911	248.111
0.148765	248.611
0.149624	249.112
0.150487	249.615
0.151356	250.12
0.15223	250.626
0.153109	251.134
0.153993	251.643
0.154882	252.154
0.155776	252.667
0.156675	253.181
0.15758	253.697
0.158489	254.338
0.159404	255.131
0.160325	255.928
0.16125	256.731
0.162181	257.538
0.163117	258.349
0.164059	259.166
0.165006	259.987
0.165959	260.813
0.166917	261.644
0.16788	262.48
0.16885	263.32
0.169824	264.166
0.170805	265.017
0.171791	265.872
0.172783	266.733
0.17378	267.599
0.174783	268.47
0.175792	269.347
0.176807	270.228
0.177828	271.115
0.178855	272.007
0.179887	272.904
0.180926	273.807
0.18197	274.715
0.183021	275.629
0.184077	276.548
0.18514	277.472
0.186209	278.402
0.187284	279.338
0.188365	280.28
0.189452	281.227
0.190546	282.179
0.191646	283.138
0.192752	284.102
0.193865	285.072
0.194984	286.049
0.19611	287.031
0.197242	288.019
0.198381	289.013
0.199526	290.013
0.200678	291.019
0.201837	292.031
0.203002	293.05
0.204174	294.074
0.205353	295.105
0.206538	296.143
0.20773	297.186
0.20893	298.236
0.210136	299.293
0.211349	300.356
0.212569	301.426
0.213796	302.502
0.21503	303.585
0.216272	304.674
0.21752	305.771
0.218776	306.874
0.220039	307.984
0.221309	309.101
0.222587	310.225
0.223872	311.355
0.225165	312.493
0.226464	313.638
0.227772	314.79
0.229087	315.697
0.230409	316.861
0.231739	318.032
0.233077	319.21
0.234423	320.396
0.235776	321.589
0.237137	322.789
0.238506	323.998
0.239883	325.213
0.241268	326.437
0.242661	327.668
0.244062	328.907
0.245471	330.154
0.246888	331.408
0.248313	332.671
0.249747	333.941
0.251189	335.22
0.252639	336.507
0.254097	337.802
0.255564	339.105
0.25704	340.417
0.258523	341.736
0.260016	343.065
0.261517	344.402
0.263027	345.747
0.264545	347.101
0.266073	348.464
0.267609	349.835
0.269153	351.215
0.270707	352.604
0.27227	354.003
0.273842	355.41
0.275423	356.826
0.277013	358.251
0.278612	359.686
0.280221	361.13
0.281838	362.583
0.283465	364.046
0.285102	365.518
0.286748	367
0.288403	368.491
0.290068	369.992
0.291743	371.503
0.293427	373.024
0.295121	374.555
0.296825	376.095
0.298538	377.646
0.300262	379.207
0.301995	380.709
0.303739	382.073
0.305492	383.443
0.307256	384.82
0.30903	386.203
0.310814	387.592
0.312608	388.987
0.314413	390.389
0.316228	391.797
0.318053	393.212
0.31989	394.633
0.321736	396.06
0.323594	397.494
0.325462	398.934
0.327341	400.381
0.32923	401.834
0.331131	403.294
0.333043	404.76
0.334965	406.233
0.336899	407.712
0.338844	409.198
0.3408	410.69
0.342768	412.189
0.344747	413.694
0.346737	415.206
0.348739	416.724
0.350752	418.249
0.352777	419.78
0.354813	421.318
0.356862	422.863
0.358922	424.414
0.360994	425.972
0.363078	427.536
0.365174	429.107
0.367282	430.685
0.369403	432.269
0.371535	433.86
0.37368	435.457
0.375837	437.061
0.378007	438.672
0.380189	440.289
0.382384	441.913
0.384592	443.544
0.386812	445.181
0.389045	446.825
0.391291	448.476
0.39355	450.133
0.395822	451.797
0.398107	453.467
0.400405	455.144
0.402717	456.828
0.405042	458.518
0.40738	460.215
0.409732	461.919
0.412098	463.629
0.414477	465.346
0.416869	467.069
0.419276	468.8
0.421697	470.536
0.424131	472.279
0.42658	474.029
0.429042	475.786
0.431519	477.549
0.43401	479.318
0.436516	481.095
0.439036	482.877
0.44157	484.667
0.44412	486.462
0.446684	488.265
0.449262	490.074
0.451856	491.889
0.454465	493.711
0.457088	495.539
0.459727	497.374
0.462381	499.215
0.46505	501.062
0.467735	502.916
0.470435	504.777
0.473151	506.644
0.475883	508.517
0.47863	510.396
0.481393	512.282
0.484172	514.174
0.486968	516.072
0.489779	517.977
0.492606	519.888
0.49545	521.805
0.49831	523.728
0.501187	525.657
0.504081	527.593
0.506991	529.535
0.509918	531.482
0.512861	533.436
0.515822	535.396
0.5188	537.362
0.521795	539.334
0.524807	541.311
0.527837	543.295
0.530884	545.285
0.533949	547.28
0.537032	549.281
0.540132	551.288
0.54325	553.301
0.546387	555.319
0.549541	557.343
0.552713	559.373
0.555904	561.408
0.559114	563.449
0.562341	565.496
0.565588	567.547
0.568853	569.605
0.572137	571.667
0.57544	573.735
0.578762	575.809
0.582103	577.887
0.585464	579.971
0.588844	582.06
0.592243	584.154
0.595662	586.253
0.599101	588.357
0.60256	590.466
0.606038	592.58
0.609537	594.699
