Stopping power dEdx from Ionisation for Ca40[0.0] Z = 20 in Water, process name: ionIoni
E [MeV]	dEdx [MeV/mm]
0.001	23.3963
0.00100577	23.4641
0.00101158	23.5321
0.00101742	23.6004
0.00102329	23.6688
0.0010292	23.7374
0.00103514	23.8062
0.00104112	23.8752
0.00104713	23.9445
0.00105317	24.0139
0.00105925	24.0835
0.00106537	24.1533
0.00107152	24.2233
0.00107771	24.2935
0.00108393	24.364
0.00109018	24.4346
0.00109648	24.5054
0.00110281	24.5765
0.00110917	24.6477
0.00111558	24.7191
0.00112202	24.7908
0.0011285	24.8626
0.00113501	24.9347
0.00114156	25.007
0.00114815	25.0795
0.00115478	25.1521
0.00116145	25.225
0.00116815	25.2981
0.0011749	25.3715
0.00118168	25.445
0.0011885	25.5187
0.00119536	25.5927
0.00120226	25.6669
0.00120921	25.7412
0.00121619	25.8158
0.00122321	25.8906
0.00123027	25.9657
0.00123737	26.0409
0.00124451	26.1164
0.0012517	26.192
0.00125893	26.2679
0.00126619	26.344
0.0012735	26.4204
0.00128086	26.4969
0.00128825	26.5737
0.00129569	26.6507
0.00130317	26.7279
0.00131069	26.8054
0.00131826	26.883
0.00132587	26.9609
0.00133352	27.039
0.00134122	27.1174
0.00134896	27.1959
0.00135675	27.2747
0.00136458	27.3537
0.00137246	27.433
0.00138038	27.5124
0.00138835	27.5921
0.00139637	27.6721
0.00140443	27.7522
0.00141254	27.8326
0.00142069	27.9132
0.00142889	27.9941
0.00143714	28.0752
0.00144544	28.1565
0.00145378	28.2381
0.00146218	28.3199
0.00147062	28.4019
0.00147911	28.4841
0.00148765	28.5666
0.00149624	28.6494
0.00150487	28.7324
0.00151356	28.8156
0.0015223	28.899
0.00153109	28.9827
0.00153993	29.0667
0.00154882	29.1509
0.00155776	29.2353
0.00156675	29.3199
0.0015758	29.4048
0.00158489	29.49
0.00159404	29.5754
0.00160325	29.6611
0.0016125	29.7469
0.00162181	29.8331
0.00163117	29.9195
0.00164059	30.0061
0.00165006	30.093
0.00165959	30.1801
0.00166917	30.2675
0.0016788	30.3552
0.0016885	30.4431
0.00169824	30.5312
0.00170805	30.6196
0.00171791	30.7083
0.00172783	30.7972
0.0017378	30.8864
0.00174783	30.9758
0.00175792	31.0655
0.00176807	31.1554
0.00177828	31.2456
0.00178855	31.3361
0.00179887	31.4268
0.00180926	31.5178
0.0018197	31.609
0.00183021	31.7005
0.00184077	31.7923
0.0018514	31.8843
0.00186209	31.9766
0.00187284	32.0692
0.00188365	32.162
0.00189452	32.2551
0.00190546	32.3485
0.00191646	32.4421
0.00192752	32.5361
0.00193865	32.6302
0.00194984	32.7247
0.0019611	32.8194
0.00197242	32.9144
0.00198381	33.0097
0.00199526	33.1052
0.00200678	33.201
0.00201837	33.2971
0.00203002	33.3935
0.00204174	33.4902
0.00205353	33.5871
0.00206538	33.6843
0.0020773	33.7818
0.0020893	33.8796
0.00210136	33.9776
0.00211349	34.076
0.00212569	34.1746
0.00213796	34.2735
0.0021503	34.3727
0.00216272	34.4721
0.0021752	34.5719
0.00218776	34.672
0.00220039	34.7723
0.00221309	34.8729
0.00222587	34.9738
0.00223872	35.075
0.00225165	35.1765
0.00226464	35.2783
0.00227772	35.3804
0.00229087	35.4828
0.00230409	35.5855
0.00231739	35.6884
0.00233077	35.7917
0.00234423	35.8953
0.00235776	35.9991
0.00237137	36.1033
0.00238506	36.2078
0.00239883	36.3125
0.00241268	36.4176
0.00242661	36.523
0.00244062	36.6286
0.00245471	36.7346
0.00246888	36.8409
0.00248313	36.9475
0.00249747	37.0544
0.00251189	37.1616
0.00252639	37.2691
0.00254097	37.3769
0.00255564	37.485
0.0025704	37.5935
0.00258523	37.7022
0.00260016	37.8113
0.00261517	37.9207
0.00263027	38.0304
0.00264545	38.1404
0.00266073	38.2508
0.00267609	38.3614
0.00269153	38.4724
0.00270707	38.5837
0.0027227	38.6953
0.00273842	38.8072
0.00275423	38.9195
0.00277013	39.032
0.00278612	39.145
0.00280221	39.2582
0.00281838	39.3717
0.00283465	39.4856
0.00285102	39.5998
0.00286748	39.7144
0.00288403	39.8292
0.00290068	39.9444
0.00291743	40.06
0.00293427	40.1758
0.00295121	40.292
0.00296825	40.4086
0.00298538	40.5255
0.00300262	40.6427
0.00301995	40.7602
0.00303739	40.8781
0.00305492	40.9963
0.00307256	41.1149
0.0030903	41.2338
0.00310814	41.353
0.00312608	41.4726
0.00314413	41.5926
0.00316228	41.7129
0.00318053	41.8335
0.0031989	41.9545
0.00321736	42.0758
0.00323594	42.1975
0.00325462	42.3195
0.00327341	42.4419
0.0032923	42.5646
0.00331131	42.6877
0.00333043	42.8111
0.00334965	42.9349
0.00336899	43.0591
0.00338844	43.1836
0.003408	43.3085
0.00342768	43.4337
0.00344747	43.5593
0.00346737	43.6853
0.00348739	43.8116
0.00350752	43.9383
0.00352777	44.0653
0.00354813	44.1927
0.00356862	44.3205
0.00358922	44.4486
0.00360994	44.5772
0.00363078	44.706
0.00365174	44.8353
0.00367282	44.9649
0.00369403	45.0949
0.00371535	45.2253
0.0037368	45.3561
0.00375837	45.4872
0.00378007	45.6187
0.00380189	45.7506
0.00382384	45.8829
0.00384592	46.0155
0.00386812	46.1486
0.00389045	46.282
0.00391291	46.4158
0.0039355	46.55
0.00395822	46.6845
0.00398107	46.8195
0.00400405	46.9548
0.00402717	47.0906
0.00405042	47.2267
0.0040738	47.3632
0.00409732	47.5002
0.00412098	47.6375
0.00414477	47.7752
0.00416869	47.9133
0.00419276	48.0518
0.00421697	48.1907
0.00424131	48.33
0.0042658	48.4697
0.00429042	48.6098
0.00431519	48.7503
0.0043401	48.8912
0.00436516	49.0326
0.00439036	49.1743
0.0044157	49.3164
0.0044412	49.459
0.00446684	49.6019
0.00449262	49.7453
0.00451856	49.8891
0.00454465	50.0333
0.00457088	50.1779
0.00459727	50.3229
0.00462381	50.4684
0.0046505	50.6142
0.00467735	50.7605
0.00470435	50.9072
0.00473151	51.0544
0.00475883	51.2019
0.0047863	51.3499
0.00481393	51.4983
0.00484172	51.6472
0.00486968	51.7964
0.00489779	51.9461
0.00492606	52.0963
0.0049545	52.2468
0.0049831	52.3978
0.00501187	52.5492
0.00504081	52.7011
0.00506991	52.8534
0.00509918	53.0061
0.00512861	53.1593
0.00515822	53.313
0.005188	53.467
0.00521795	53.6215
0.00524807	53.7765
0.00527837	53.9319
0.00530884	54.0877
0.00533949	54.244
0.00537032	54.4008
0.00540132	54.558
0.0054325	54.7157
0.00546387	54.524
0.00549541	54.6812
0.00552713	54.839
0.00555904	54.9971
0.00559114	55.1558
0.00562341	55.3149
0.00565588	55.4744
0.00568853	55.6345
0.00572137	55.7949
0.0057544	55.9559
0.00578762	56.1173
0.00582103	56.2792
0.00585464	56.4415
0.00588844	56.6043
0.00592243	56.7676
0.00595662	56.9313
0.00599101	57.0956
0.0060256	57.2603
0.00606038	57.4254
0.00609537	57.5911
0.00613056	57.7572
0.00616595	57.9238
0.00620155	58.0909
0.00623735	58.2585
0.00627336	58.4265
0.00630957	58.5951
0.006346	58.7641
0.00638263	58.9336
0.00641948	59.1036
0.00645654	59.2741
0.00649382	59.4451
0.00653131	59.6166
0.00656901	59.7885
0.00660693	59.961
0.00664508	60.134
0.00668344	60.3075
0.00672202	60.4814
0.00676083	60.6559
0.00679986	60.8309
0.00683912	61.0064
0.0068786	61.1823
0.00691831	61.3588
0.00695825	61.5358
0.00699842	61.7134
0.00703882	61.8914
0.00707946	62.0699
0.00712033	62.249
0.00716143	62.4286
0.00720278	62.6087
0.00724436	62.7893
0.00728618	62.9704
0.00732825	63.1521
0.00737055	63.3342
0.0074131	63.517
0.0074559	63.7002
0.00749894	63.884
0.00754223	64.0682
0.00758578	64.2531
0.00762957	64.4384
0.00767361	64.6243
0.00771792	64.8108
0.00776247	64.9977
0.00780728	65.1853
0.00785236	65.3733
0.00789769	65.5619
0.00794328	65.751
0.00798914	65.9407
0.00803526	66.131
0.00808165	66.3217
0.00812831	66.5131
0.00817523	66.705
0.00822243	66.8974
0.0082699	67.0904
0.00831764	67.284
0.00836566	67.4781
0.00841395	67.6727
0.00846253	67.868
0.00851138	68.0638
0.00856052	68.2601
0.00860994	68.4571
0.00865964	68.6546
0.00870964	68.8526
0.00875992	69.0513
0.00881049	69.2505
0.00886135	69.4503
0.00891251	69.6507
0.00896396	69.8516
0.00901571	70.0531
0.00906776	70.2553
0.00912011	70.4579
0.00917276	70.6612
0.00922571	70.8651
0.00927897	71.0695
0.00933254	71.2746
0.00938642	71.4802
0.00944061	71.6865
0.00949511	71.8933
0.00954993	72.1007
0.00960506	72.3087
0.00966051	72.5174
0.00971628	72.7266
0.00977237	72.9364
0.00982879	73.1468
0.00988553	73.3579
0.0099426	73.5695
0.01	73.7818
0.0100577	73.9947
0.0101158	74.2082
0.0101742	74.4223
0.0102329	74.637
0.010292	74.8524
0.0103514	75.0683
0.0104112	75.2849
0.0104713	75.5021
0.0105317	75.72
0.0105925	75.9385
0.0106537	76.1576
0.0107152	76.3773
0.0107771	76.5977
0.0108393	76.8187
0.0109018	77.0403
0.0109648	77.2626
0.0110281	77.4856
0.0110917	77.7091
0.0111558	77.9334
0.0112202	78.1582
0.011285	78.3837
0.0113501	78.6099
0.0114156	78.8367
0.0114815	79.0642
0.0115478	79.2923
0.0116145	79.5211
0.0116815	79.7506
0.011749	79.9807
0.0118168	80.2115
0.011885	80.4429
0.0119536	80.6751
0.0120226	80.9078
0.0120921	81.1413
0.0121619	81.3754
0.0122321	81.6103
0.0123027	81.8457
0.0123737	82.0819
0.0124451	82.3188
0.012517	82.5563
0.0125893	82.7945
0.0126619	83.0334
0.012735	83.273
0.0128086	83.5133
0.0128825	83.7543
0.0129569	83.996
0.0130317	84.2384
0.0131069	84.4815
0.0131826	84.7252
0.0132587	84.9697
0.0133352	85.2149
0.0134122	85.4608
0.0134896	85.7074
0.0135675	85.9548
0.0136458	86.2028
0.0137246	86.4516
0.0138038	86.701
0.0138835	86.9512
0.0139637	87.2021
0.0140443	87.4538
0.0141254	87.7062
0.0142069	87.9593
0.0142889	88.2131
0.0143714	88.4676
0.0144544	88.7229
0.0145378	88.979
0.0146218	89.2358
0.0147062	89.4933
0.0147911	89.7515
0.0148765	90.0106
0.0149624	90.2703
0.0150487	90.5308
0.0151356	90.7921
0.015223	91.0541
0.0153109	91.3169
0.0153993	91.5804
0.0154882	91.8447
0.0155776	92.1098
0.0156675	92.3756
0.015758	92.6422
0.0158489	92.9095
0.0159404	93.1777
0.0160325	93.4466
0.016125	93.7163
0.0162181	93.9867
0.0163117	94.258
0.0164059	94.53
0.0165006	94.8028
0.0165959	95.0764
0.0166917	95.3508
0.016788	95.626
0.016885	95.902
0.0169824	96.1788
0.0170805	96.4563
0.0171791	96.7347
0.0172783	97.0139
0.017378	97.2939
0.0174783	97.5747
0.0175792	97.8563
0.0176807	98.1388
0.0177828	98.422
0.0178855	98.7061
0.0179887	98.9909
0.0180926	99.2767
0.018197	99.5632
0.0183021	99.8506
0.0184077	100.139
0.018514	100.428
0.0186209	100.718
0.0187284	101.008
0.0188365	101.3
0.0189452	101.592
0.0190546	101.885
0.0191646	102.18
0.0192752	102.474
0.0193865	102.77
0.0194984	103.067
0.019611	103.364
0.0197242	103.663
0.0198381	103.962
0.0199526	104.262
0.0200678	104.563
0.0201837	104.865
0.0203002	105.167
0.0204174	105.471
0.0205353	105.775
0.0206538	106.081
0.020773	106.387
0.020893	106.694
0.0210136	107.002
0.0211349	107.311
0.0212569	107.621
0.0213796	107.931
0.021503	108.243
0.0216272	108.555
0.021752	108.869
0.0218776	109.183
0.0220039	109.498
0.0221309	109.814
0.0222587	110.131
0.0223872	110.449
0.0225165	110.768
0.0226464	111.088
0.0227772	111.408
0.0229087	111.73
0.0230409	112.052
0.0231739	112.376
0.0233077	112.7
0.0234423	113.026
0.0235776	113.352
0.0237137	113.679
0.0238506	114.007
0.0239883	114.336
0.0241268	114.666
0.0242661	114.997
0.0244062	115.329
0.0245471	115.662
0.0246888	115.996
0.0248313	116.331
0.0249747	116.667
0.0251189	117.004
0.0252639	117.342
0.0254097	117.68
0.0255564	118.02
0.025704	118.361
0.0258523	118.702
0.0260016	119.045
0.0261517	119.389
0.0263027	119.733
0.0264545	120.079
0.0266073	120.426
0.0267609	120.773
0.0269153	121.122
0.0270707	121.472
0.027227	121.823
0.0273842	122.174
0.0275423	122.527
0.0277013	122.881
0.0278612	123.235
0.0280221	123.591
0.0281838	123.948
0.0283465	124.306
0.0285102	124.665
0.0286748	125.025
0.0288403	125.386
0.0290068	125.748
0.0291743	126.111
0.0293427	126.475
0.0295121	126.84
0.0296825	127.206
0.0298538	127.574
0.0300262	127.942
0.0301995	128.311
0.0303739	128.682
0.0305492	129.053
0.0307256	129.426
0.030903	129.8
0.0310814	130.174
0.0312608	130.55
0.0314413	130.927
0.0316228	131.305
0.0318053	131.684
0.031989	132.065
0.0321736	132.446
0.0323594	132.828
0.0325462	133.212
0.0327341	133.597
0.032923	133.982
0.0331131	134.369
0.0333043	134.757
0.0334965	135.146
0.0336899	135.537
0.0338844	135.928
0.03408	136.321
0.0342768	136.714
0.0344747	137.109
0.0346737	137.505
0.0348739	137.902
0.0350752	138.3
0.0352777	138.7
0.0354813	139.1
0.0356862	139.502
0.0358922	139.905
0.0360994	140.309
0.0363078	140.714
0.0365174	141.12
0.0367282	141.528
0.0369403	141.936
0.0371535	142.346
0.037368	142.757
0.0375837	143.17
0.0378007	143.583
0.0380189	143.998
0.0382384	144.414
0.0384592	144.831
0.0386812	145.249
0.0389045	145.668
0.0391291	146.089
0.039355	146.511
0.0395822	146.934
0.0398107	147.358
0.0400405	147.784
0.0402717	148.211
0.0405042	148.639
0.040738	149.068
0.0409732	149.499
0.0412098	149.93
0.0414477	150.363
0.0416869	150.798
0.0419276	151.233
0.0421697	151.67
0.0424131	152.108
0.042658	152.547
0.0429042	152.988
0.0431519	153.43
0.043401	153.873
0.0436516	154.318
0.0439036	154.763
0.044157	155.21
0.044412	155.659
0.0446684	156.108
0.0449262	156.559
0.0451856	157.011
0.0454465	157.465
0.0457088	157.92
0.0459727	158.376
0.0462381	158.833
0.046505	159.292
0.0467735	159.752
0.0470435	160.214
0.0473151	160.676
0.0475883	161.14
0.047863	161.606
0.0481393	162.073
0.0484172	162.541
0.0486968	163.01
0.0489779	163.481
0.0492606	163.954
0.049545	164.427
0.049831	164.902
0.0501187	165.378
0.0504081	165.856
0.0506991	166.335
0.0509918	166.816
0.0512861	167.298
0.0515822	167.781
0.05188	168.266
0.0521795	168.752
0.0524807	169.239
0.0527837	169.728
0.0530884	170.219
0.0533949	170.71
0.0537032	171.203
0.0540132	171.698
0.054325	172.194
0.0546387	172.692
0.0549541	173.19
0.0552713	173.691
0.0555904	174.193
0.0559114	174.696
0.0562341	175.201
0.0565588	175.707
0.0568853	176.214
0.0572137	176.723
0.057544	177.234
0.0578762	177.746
0.0582103	178.26
0.0585464	178.775
0.0588844	179.291
0.0592243	179.809
0.0595662	180.329
0.0599101	180.85
0.060256	181.372
0.0606038	181.896
0.0609537	182.422
0.0613056	182.949
0.0616595	183.478
0.0620155	184.008
0.0623735	184.539
0.0627336	185.073
0.0630957	185.607
0.06346	186.144
0.0638263	186.682
0.0641948	187.221
0.0645654	187.762
0.0649382	188.305
0.0653131	188.849
0.0656901	189.394
0.0660693	189.942
0.0664508	190.491
0.0668344	191.041
0.0672202	191.593
0.0676083	192.147
0.0679986	192.702
0.0683912	193.259
0.068786	193.817
0.0691831	194.377
0.0695825	194.939
0.0699842	195.502
0.0703882	196.067
0.0707946	196.634
0.0712033	197.202
0.0716143	197.772
0.0720278	198.344
0.0724436	198.917
0.0728618	199.492
0.0732825	200.068
0.0737055	200.647
0.074131	201.226
0.074559	201.808
0.0749894	202.391
0.0754223	202.976
0.0758578	203.563
0.0762957	204.151
0.0767361	204.741
0.0771792	205.333
0.0776247	205.926
0.0780728	206.522
0.0785236	207.118
0.0789769	207.717
0.0794328	208.317
0.0798914	208.92
0.0803526	209.523
0.0808165	210.129
0.0812831	210.736
0.0817523	211.346
0.0822243	211.956
0.082699	212.569
0.0831764	213.184
0.0836566	213.8
0.0841395	214.418
0.0846253	215.038
0.0851138	215.659
0.0856052	216.283
0.0860994	216.908
0.0865964	217.535
0.0870964	218.164
0.0875992	218.794
0.0881049	219.427
0.0886135	220.061
0.0891251	220.697
0.0896396	221.335
0.0901571	221.975
0.0906776	222.617
0.0912011	223.26
0.0917276	223.906
0.0922571	224.553
0.0927897	225.202
0.0933254	225.853
0.0938642	226.506
0.0944061	227.161
0.0949511	227.818
0.0954993	228.476
0.0960506	229.137
0.0966051	229.799
0.0971628	230.464
0.0977237	231.13
0.0982879	231.798
0.0988553	232.468
0.099426	233.141
0.1	233.815
0.100577	234.491
0.101158	235.169
0.101742	235.849
0.102329	236.531
0.10292	237.215
0.103514	237.9
0.104112	238.588
0.104713	239.278
0.105317	239.97
0.105925	240.664
0.106537	241.36
0.107152	242.058
0.107771	242.758
0.108393	243.46
0.109018	244.164
0.109648	244.87
0.110281	245.578
0.110917	246.288
0.111558	247
0.112202	247.714
0.11285	248.431
0.113501	249.149
0.114156	249.87
0.114815	250.592
0.115478	251.317
0.116145	252.044
0.116815	252.773
0.11749	253.504
0.118168	254.237
0.11885	254.972
0.119536	255.71
0.120226	256.449
0.120921	257.191
0.121619	257.935
0.122321	258.681
0.123027	259.429
0.123737	260.179
0.124451	260.932
0.12517	261.686
0.125893	262.443
0.126619	263.202
0.12735	263.964
0.128086	264.727
0.128825	265.493
0.129569	266.261
0.130317	267.031
0.131069	267.803
0.131826	268.578
0.132587	269.355
0.133352	270.134
0.134122	270.915
0.134896	271.699
0.135675	272.485
0.136458	273.273
0.137246	274.064
0.138038	274.857
0.138835	275.652
0.139637	276.449
0.140443	277.249
0.141254	278.051
0.142069	278.855
0.142889	279.662
0.143714	280.471
0.144544	281.283
0.145378	282.096
0.146218	282.913
0.147062	283.731
0.147911	284.552
0.148765	285.375
0.149624	286.201
0.150487	287.029
0.151356	287.859
0.15223	288.692
0.153109	289.528
0.153993	290.365
0.154882	291.205
0.155776	292.048
0.156675	292.893
0.15758	293.741
0.158489	294.59
0.159404	295.443
0.160325	296.298
0.16125	297.155
0.162181	298.015
0.163117	298.877
0.164059	299.742
0.165006	300.61
0.165959	301.48
0.166917	302.352
0.16788	303.227
0.16885	304.104
0.169824	304.985
0.170805	305.867
0.171791	306.752
0.172783	307.64
0.17378	308.53
0.174783	309.423
0.175792	310.319
0.176807	311.217
0.177828	312.118
0.178855	313.021
0.179887	313.927
0.180926	314.836
0.18197	315.747
0.183021	316.661
0.184077	317.577
0.18514	318.496
0.186209	319.418
0.187284	320.343
0.188365	321.27
0.189452	322.2
0.190546	323.133
0.191646	324.068
0.192752	325.006
0.193865	325.947
0.194984	326.89
0.19611	327.837
0.197242	328.786
0.198381	329.738
0.199526	330.692
0.200678	331.649
0.201837	332.61
0.203002	333.572
0.204174	334.538
0.205353	335.507
0.206538	336.478
0.20773	337.452
0.20893	338.429
0.210136	339.409
0.211349	340.392
0.212569	341.377
0.213796	342.366
0.21503	343.357
0.216272	344.351
0.21752	345.348
0.218776	346.348
0.220039	347.351
0.221309	348.357
0.222587	349.365
0.223872	350.377
0.225165	351.391
0.226464	352.409
0.227772	353.429
0.229087	354.453
0.230409	355.479
0.231739	356.509
0.233077	357.541
0.234423	358.576
0.235776	359.615
0.237137	360.656
0.238506	361.701
0.239883	362.748
0.241268	363.799
0.242661	364.852
0.244062	365.909
0.245471	366.969
0.246888	368.032
0.248313	369.098
0.249747	370.167
0.251189	371.239
0.252639	372.314
0.254097	373.392
0.255564	374.474
0.25704	375.559
0.258523	376.647
0.260016	377.738
0.261517	378.832
0.263027	379.929
0.264545	381.03
0.266073	382.133
0.267609	383.24
0.269153	384.351
0.270707	385.464
0.27227	386.581
0.273842	387.701
0.275423	388.824
0.277013	389.95
0.278612	391.08
0.280221	392.213
0.281838	393.349
0.283465	394.489
0.285102	395.632
0.286748	396.778
0.288403	397.928
0.290068	399.081
0.291743	400.237
0.293427	401.397
0.295121	402.56
0.296825	403.726
0.298538	404.896
0.300262	406.069
0.301995	407.246
0.303739	408.426
0.305492	409.609
0.307256	410.796
0.30903	411.987
0.310814	413.181
0.312608	414.378
0.314413	415.579
0.316228	416.783
0.318053	417.991
0.31989	419.203
0.321736	420.417
0.323594	421.636
0.325462	422.858
0.327341	424.084
0.32923	425.313
0.331131	426.545
0.333043	427.782
0.334965	429.022
0.336899	430.265
0.338844	431.512
0.3408	432.763
0.342768	434.017
0.344747	435.276
0.346737	436.537
0.348739	437.803
0.350752	439.072
0.352777	440.345
0.354813	441.621
0.356862	442.901
0.358922	444.185
0.360994	445.473
0.363078	446.765
0.365174	448.06
0.367282	449.359
0.369403	450.662
0.371535	451.968
0.37368	453.279
0.375837	454.593
0.378007	455.911
0.380189	457.233
0.382384	458.559
0.384592	459.888
0.386812	461.222
0.389045	462.559
0.391291	463.901
0.39355	465.246
0.395822	466.595
0.398107	467.948
0.400405	469.305
0.402717	470.666
0.405042	472.031
0.40738	473.4
0.409732	474.773
0.412098	476.15
0.414477	477.531
0.416869	478.916
0.419276	480.305
0.421697	481.698
0.424131	483.095
0.42658	484.496
0.429042	485.901
0.431519	487.311
0.43401	488.724
0.436516	490.142
0.439036	491.564
0.44157	492.99
0.44412	494.42
0.446684	495.854
0.449262	497.292
0.451856	498.735
0.454465	500.182
0.457088	501.633
0.459727	503.088
0.462381	504.548
0.46505	506.012
0.467735	507.48
0.470435	508.952
0.473151	510.429
0.475883	511.91
0.47863	513.395
0.481393	514.885
0.484172	516.379
0.486968	517.877
0.489779	519.38
0.492606	520.887
0.49545	522.399
0.49831	523.915
0.501187	525.435
0.504081	526.96
0.506991	528.489
0.509918	530.023
0.512861	531.561
0.515822	533.104
0.5188	534.651
0.521795	536.203
0.524807	537.759
0.527837	539.32
0.530884	540.885
0.533949	542.455
0.537032	544.03
0.540132	545.609
0.54325	547.192
0.546387	548.781
0.549541	550.374
0.552713	551.971
0.555904	553.574
0.559114	555.181
0.562341	556.793
0.565588	558.409
0.568853	560.03
0.572137	561.656
0.57544	563.287
0.578762	564.922
0.582103	566.562
0.585464	568.207
0.588844	569.857
0.592243	571.512
0.595662	573.171
0.599101	574.836
0.60256	576.505
0.606038	578.179
0.609537	579.858
0.613056	581.542
