Stopping power dEdx from Ionisation for Cl35[0.0] Z = 17 in G4_Si, process name: ionIoni
E [MeV]	dEdx [MeV/mm]
0.001	32.5978
0.00100577	32.6925
0.00101158	32.7875
0.00101742	32.8828
0.00102329	32.9784
0.0010292	33.0742
0.00103514	33.1703
0.00104112	33.2667
0.00104713	33.3634
0.00105317	33.4603
0.00105925	33.5575
0.00106537	33.655
0.00107152	33.7528
0.00107771	33.8509
0.00108393	33.9492
0.00109018	34.0479
0.00109648	34.1468
0.00110281	34.246
0.00110917	34.3455
0.00111558	34.4452
0.00112202	34.5453
0.0011285	34.6457
0.00113501	34.7463
0.00114156	34.8472
0.00114815	34.9484
0.00115478	35.05
0.00116145	35.1518
0.00116815	35.2539
0.0011749	35.3563
0.00118168	35.4589
0.0011885	35.5619
0.00119536	35.6652
0.00120226	35.7688
0.00120921	35.8727
0.00121619	35.9768
0.00122321	36.0813
0.00123027	36.1861
0.00123737	36.2912
0.00124451	36.3966
0.0012517	36.5023
0.00125893	36.6082
0.00126619	36.7145
0.0012735	36.8211
0.00128086	36.9281
0.00128825	37.0353
0.00129569	37.1428
0.00130317	37.2506
0.00131069	37.3588
0.00131826	37.4673
0.00132587	37.576
0.00133352	37.6851
0.00134122	37.7945
0.00134896	37.9042
0.00135675	38.0143
0.00136458	38.1246
0.00137246	38.2353
0.00138038	38.3463
0.00138835	38.4576
0.00139637	38.5692
0.00140443	38.6812
0.00141254	38.7934
0.00142069	38.906
0.00142889	39.0189
0.00143714	39.1322
0.00144544	39.2458
0.00145378	39.3597
0.00146218	39.4739
0.00147062	39.5884
0.00147911	39.7033
0.00148765	39.8185
0.00149624	39.9341
0.00150487	40.05
0.00151356	40.1662
0.0015223	40.2828
0.00153109	40.3996
0.00153993	40.5169
0.00154882	40.6344
0.00155776	40.7523
0.00156675	40.8706
0.0015758	40.9892
0.00158489	41.1081
0.00159404	41.2274
0.00160325	41.347
0.0016125	41.4669
0.00162181	41.5872
0.00163117	41.7079
0.00164059	41.8289
0.00165006	41.9502
0.00165959	42.0719
0.00166917	42.1939
0.0016788	42.3163
0.0016885	42.4391
0.00169824	42.5622
0.00170805	42.6857
0.00171791	42.8095
0.00172783	42.9336
0.0017378	43.0582
0.00174783	43.1831
0.00175792	43.3083
0.00176807	43.4339
0.00177828	43.5599
0.00178855	43.6862
0.00179887	43.8129
0.00180926	43.94
0.0018197	44.0674
0.00183021	44.1952
0.00184077	44.3234
0.0018514	44.4519
0.00186209	44.5808
0.00187284	44.7101
0.00188365	44.8398
0.00189452	44.9698
0.00190546	45.1002
0.00191646	45.2309
0.00192752	45.3621
0.00193865	45.4936
0.00194984	45.6255
0.0019611	45.7578
0.00197242	45.8905
0.00198381	46.0235
0.00199526	46.157
0.00200678	46.2908
0.00201837	46.425
0.00203002	46.5596
0.00204174	46.6946
0.00205353	46.83
0.00206538	46.9657
0.0020773	47.1019
0.0020893	47.2384
0.00210136	47.3753
0.00211349	47.5127
0.00212569	47.6504
0.00213796	47.7885
0.0021503	47.9271
0.00216272	48.066
0.0021752	48.2053
0.00218776	48.345
0.00220039	48.4851
0.00221309	48.6257
0.00222587	48.7666
0.00223872	48.908
0.00225165	49.0497
0.00226464	49.1919
0.00227772	49.3344
0.00229087	49.4774
0.00230409	49.6208
0.00231739	49.7646
0.00233077	49.9088
0.00234423	50.0535
0.00235776	50.1985
0.00237137	50.344
0.00238506	50.4899
0.00239883	50.6362
0.00241268	50.7829
0.00242661	50.9301
0.00244062	51.0776
0.00245471	51.2256
0.00246888	51.3741
0.00248313	51.5229
0.00249747	51.6722
0.00251189	51.8219
0.00252639	51.9721
0.00254097	52.1227
0.00255564	52.2737
0.0025704	52.4251
0.00258523	52.577
0.00260016	52.7293
0.00261517	52.8821
0.00263027	53.0353
0.00264545	53.189
0.00266073	53.3431
0.00267609	53.4976
0.00269153	53.6526
0.00270707	53.808
0.0027227	53.9639
0.00273842	54.1202
0.00275423	54.277
0.00277013	54.4342
0.00278612	54.5919
0.00280221	54.75
0.00281838	54.9086
0.00283465	55.0676
0.00285102	55.2271
0.00286748	55.3871
0.00288403	55.5475
0.00290068	55.7084
0.00291743	55.8698
0.00293427	56.0316
0.00295121	56.1939
0.00296825	56.3566
0.00298538	56.5198
0.00300262	56.6835
0.00301995	56.8477
0.00303739	57.0123
0.00305492	57.1774
0.00307256	57.343
0.0030903	57.5091
0.00310814	57.6756
0.00312608	57.8426
0.00314413	58.0101
0.00316228	58.1781
0.00318053	58.3466
0.0031989	58.5156
0.00321736	58.685
0.00323594	58.8549
0.00325462	59.0253
0.00327341	59.1963
0.0032923	59.3677
0.00331131	59.5396
0.00333043	59.712
0.00334965	59.8848
0.00336899	60.0582
0.00338844	60.2321
0.003408	60.4065
0.00342768	60.5814
0.00344747	60.7568
0.00346737	60.9327
0.00348739	61.1091
0.00350752	61.286
0.00352777	61.4635
0.00354813	61.6414
0.00356862	61.8199
0.00358922	61.9988
0.00360994	62.1783
0.00363078	62.3583
0.00365174	62.5388
0.00367282	62.7199
0.00369403	62.9014
0.00371535	63.0835
0.0037368	63.2661
0.00375837	63.4492
0.00378007	63.6329
0.00380189	63.8171
0.00382384	64.0018
0.00384592	64.1871
0.00386812	64.3729
0.00389045	64.5592
0.00391291	64.7461
0.0039355	64.9335
0.00395822	65.1214
0.00398107	65.3099
0.00400405	65.4989
0.00402717	65.6885
0.00405042	65.8786
0.0040738	66.0693
0.00409732	66.2605
0.00412098	66.4522
0.00414477	66.6446
0.00416869	66.8374
0.00419276	67.0309
0.00421697	67.2249
0.00424131	67.4194
0.0042658	67.6145
0.00429042	67.8102
0.00431519	68.0064
0.0043401	68.2032
0.00436516	68.4006
0.00439036	68.5985
0.0044157	68.797
0.0044412	68.9961
0.00446684	69.1957
0.00449262	69.396
0.00451856	69.5968
0.00454465	69.7982
0.00457088	70.0001
0.00459727	70.2027
0.00462381	70.4058
0.0046505	70.6095
0.00467735	70.8138
0.00470435	71.0187
0.00473151	71.2242
0.00475883	71.4303
0.0047863	71.6369
0.00481393	71.8442
0.00484172	72.052
0.00486968	72.2605
0.00489779	72.4696
0.00492606	72.6792
0.0049545	72.8895
0.0049831	73.1004
0.00501187	73.3119
0.00504081	73.5239
0.00506991	73.7366
0.00509918	73.95
0.00512861	74.1639
0.00515822	74.3784
0.005188	74.5936
0.00521795	74.8094
0.00524807	75.0258
0.00527837	75.2428
0.00530884	75.4605
0.00533949	75.6788
0.00537032	75.8977
0.00540132	76.1172
0.0054325	76.3374
0.00546387	76.5582
0.00549541	76.7797
0.00552713	77.0017
0.00555904	77.2245
0.00559114	77.4478
0.00562341	77.6719
0.00565588	77.8965
0.00568853	78.1218
0.00572137	78.3478
0.0057544	78.5744
0.00578762	78.8016
0.00582103	79.0296
0.00585464	79.2581
0.00588844	79.4874
0.00592243	79.7172
0.00595662	79.9478
0.00599101	80.179
0.0060256	80.4109
0.00606038	80.6435
0.00609537	80.8767
0.00613056	81.1106
0.00616595	81.3451
0.00620155	81.5804
0.00623735	81.8163
0.00627336	82.0529
0.00630957	82.2902
0.006346	82.5282
0.00638263	82.7668
0.00641948	83.0062
0.00645654	83.2462
0.00649382	83.4869
0.00653131	83.7284
0.00656901	83.9705
0.00660693	84.2133
0.00664508	84.4568
0.00668344	84.701
0.00672202	84.9459
0.00676083	85.1915
0.00679986	85.4379
0.00683912	85.6849
0.0068786	85.9327
0.00691831	86.1811
0.00695825	86.4303
0.00699842	86.6802
0.00703882	86.9309
0.00707946	87.1822
0.00712033	87.4343
0.00716143	87.6871
0.00720278	87.9406
0.00724436	88.1949
0.00728618	88.4498
0.00732825	88.7056
0.00737055	88.962
0.0074131	89.2192
0.0074559	89.4772
0.00749894	89.7359
0.00754223	89.9953
0.00758578	90.2555
0.00762957	90.5164
0.00767361	90.7781
0.00771792	91.0405
0.00776247	91.3037
0.00780728	91.5677
0.00785236	91.8324
0.00789769	92.0978
0.00794328	92.3641
0.00798914	92.6311
0.00803526	92.8989
0.00808165	93.1674
0.00812831	93.4367
0.00817523	93.7068
0.00822243	93.9777
0.0082699	94.2494
0.00831764	94.5218
0.00836566	94.795
0.00841395	95.069
0.00846253	95.3438
0.00851138	95.6194
0.00856052	95.8958
0.00860994	96.173
0.00865964	96.451
0.00870964	96.7298
0.00875992	97.0094
0.00881049	97.2898
0.00886135	97.571
0.00891251	97.853
0.00896396	98.1358
0.00901571	98.4195
0.00906776	98.7039
0.00912011	98.9892
0.00917276	99.2753
0.00922571	99.5622
0.00927897	99.85
0.00933254	100.139
0.00938642	100.428
0.00944061	100.718
0.00949511	101.009
0.00954993	101.301
0.00960506	101.594
0.00966051	101.888
0.00971628	102.182
0.00977237	102.477
0.00982879	102.774
0.00988553	103.071
0.0099426	103.368
0.01	103.667
0.0100577	103.967
0.0101158	104.267
0.0101742	104.569
0.0102329	104.871
0.010292	105.174
0.0103514	105.478
0.0104112	105.782
0.0104713	106.088
0.0105317	106.395
0.0105925	106.702
0.0106537	107.011
0.0107152	107.32
0.0107771	107.63
0.0108393	108.211
0.0109018	108.523
0.0109648	108.836
0.0110281	109.149
0.0110917	109.464
0.0111558	109.779
0.0112202	110.096
0.011285	110.413
0.0113501	110.731
0.0114156	111.051
0.0114815	111.371
0.0115478	111.692
0.0116145	112.014
0.0116815	112.337
0.011749	112.66
0.0118168	112.985
0.011885	113.311
0.0119536	113.637
0.0120226	113.965
0.0120921	114.293
0.0121619	114.623
0.0122321	114.953
0.0123027	115.285
0.0123737	115.617
0.0124451	115.95
0.012517	116.284
0.0125893	116.619
0.0126619	116.956
0.012735	117.293
0.0128086	117.631
0.0128825	117.97
0.0129569	118.31
0.0130317	118.651
0.0131069	118.993
0.0131826	119.336
0.0132587	119.68
0.0133352	120.025
0.0134122	120.371
0.0134896	120.718
0.0135675	121.066
0.0136458	121.415
0.0137246	121.765
0.0138038	122.116
0.0138835	122.468
0.0139637	122.821
0.0140443	123.175
0.0141254	123.53
0.0142069	123.886
0.0142889	124.243
0.0143714	124.601
0.0144544	124.96
0.0145378	125.32
0.0146218	125.681
0.0147062	126.044
0.0147911	126.407
0.0148765	126.771
0.0149624	127.137
0.0150487	127.503
0.0151356	127.871
0.015223	128.239
0.0153109	128.609
0.0153993	128.98
0.0154882	129.351
0.0155776	129.724
0.0156675	130.098
0.015758	130.473
0.0158489	130.849
0.0159404	131.226
0.0160325	131.605
0.016125	131.984
0.0162181	132.364
0.0163117	132.746
0.0164059	133.129
0.0165006	133.512
0.0165959	133.897
0.0166917	134.283
0.016788	134.67
0.016885	135.058
0.0169824	135.448
0.0170805	135.838
0.0171791	136.229
0.0172783	136.622
0.017378	137.016
0.0174783	137.411
0.0175792	137.807
0.0176807	138.204
0.0177828	138.603
0.0178855	139.002
0.0179887	139.403
0.0180926	139.804
0.018197	140.207
0.0183021	140.612
0.0184077	141.017
0.018514	141.423
0.0186209	141.831
0.0187284	142.24
0.0188365	142.65
0.0189452	143.061
0.0190546	143.473
0.0191646	143.887
0.0192752	144.302
0.0193865	144.718
0.0194984	145.135
0.019611	145.553
0.0197242	145.973
0.0198381	146.393
0.0199526	146.815
0.0200678	147.238
0.0201837	147.663
0.0203002	148.088
0.0204174	148.515
0.0205353	148.943
0.0206538	149.373
0.020773	149.803
0.020893	150.235
0.0210136	150.668
0.0211349	151.102
0.0212569	151.538
0.0213796	151.975
0.021503	152.413
0.0216272	152.852
0.021752	153.293
0.0218776	153.734
0.0220039	154.178
0.0221309	154.622
0.0222587	155.068
0.0223872	155.515
0.0225165	155.963
0.0226464	156.412
0.0227772	156.863
0.0229087	157.315
0.0230409	157.769
0.0231739	158.224
0.0233077	158.68
0.0234423	159.137
0.0235776	159.596
0.0237137	160.056
0.0238506	160.517
0.0239883	160.98
0.0241268	161.444
0.0242661	161.909
0.0244062	162.376
0.0245471	162.844
0.0246888	163.313
0.0248313	163.784
0.0249747	164.256
0.0251189	164.729
0.0252639	165.204
0.0254097	165.68
0.0255564	166.158
0.025704	166.637
0.0258523	167.117
0.0260016	167.599
0.0261517	168.082
0.0263027	168.566
0.0264545	169.052
0.0266073	169.54
0.0267609	170.028
0.0269153	170.518
0.0270707	171.01
0.027227	171.503
0.0273842	171.997
0.0275423	172.493
0.0277013	172.99
0.0278612	173.489
0.0280221	173.989
0.0281838	174.49
0.0283465	174.993
0.0285102	175.498
0.0286748	176.003
0.0288403	176.511
0.0290068	177.02
0.0291743	177.53
0.0293427	178.041
0.0295121	178.555
0.0296825	179.069
0.0298538	179.585
0.0300262	180.103
0.0301995	180.622
0.0303739	181.143
0.0305492	181.665
0.0307256	182.189
0.030903	182.714
0.0310814	183.24
0.0312608	183.769
0.0314413	184.298
0.0316228	184.829
0.0318053	185.362
0.031989	185.896
0.0321736	186.432
0.0323594	186.97
0.0325462	187.509
0.0327341	188.049
0.032923	188.591
0.0331131	189.135
0.0333043	189.68
0.0334965	190.227
0.0336899	190.775
0.0338844	191.325
0.03408	191.876
0.0342768	192.429
0.0344747	192.984
0.0346737	193.54
0.0348739	194.098
0.0350752	194.657
0.0352777	195.219
0.0354813	195.781
0.0356862	196.346
0.0358922	196.912
0.0360994	197.479
0.0363078	198.048
0.0365174	198.619
0.0367282	199.192
0.0369403	199.766
0.0371535	200.342
0.037368	200.919
0.0375837	201.498
0.0378007	202.079
0.0380189	202.661
0.0382384	203.246
0.0384592	203.831
0.0386812	204.419
0.0389045	205.008
0.0391291	205.599
0.039355	206.192
0.0395822	206.786
0.0398107	207.382
0.0400405	207.98
0.0402717	208.579
0.0405042	209.18
0.040738	209.783
0.0409732	210.388
0.0412098	210.995
0.0414477	211.603
0.0416869	212.213
0.0419276	212.824
0.0421697	213.438
0.0424131	214.053
0.042658	214.67
0.0429042	215.289
0.0431519	215.909
0.043401	216.532
0.0436516	217.156
0.0439036	217.782
0.044157	218.409
0.044412	219.039
0.0446684	219.67
0.0449262	220.303
0.0451856	220.938
0.0454465	221.575
0.0457088	222.214
0.0459727	222.854
0.0462381	223.497
0.046505	224.141
0.0467735	224.787
0.0470435	225.435
0.0473151	226.085
0.0475883	226.736
0.047863	227.39
0.0481393	228.045
0.0484172	228.703
0.0486968	229.362
0.0489779	230.023
0.0492606	230.686
0.049545	231.351
0.049831	232.018
0.0501187	232.686
0.0504081	233.357
0.0506991	234.03
0.0509918	234.704
0.0512861	235.381
0.0515822	236.059
0.05188	236.74
0.0521795	237.422
0.0524807	238.106
0.0527837	238.793
0.0530884	239.481
0.0533949	240.171
0.0537032	240.864
0.0540132	241.558
0.054325	242.254
0.0546387	242.952
0.0549541	243.653
0.0552713	244.355
0.0555904	245.059
0.0559114	245.766
0.0562341	246.474
0.0565588	247.184
0.0568853	247.897
0.0572137	248.611
0.057544	249.328
0.0578762	250.047
0.0582103	250.767
0.0585464	251.49
0.0588844	252.215
0.0592243	252.942
0.0595662	253.671
0.0599101	254.402
0.060256	255.136
0.0606038	255.871
0.0609537	256.609
0.0613056	257.348
0.0616595	258.09
0.0620155	258.834
0.0623735	259.58
0.0627336	260.328
0.0630957	261.079
0.06346	261.831
0.0638263	262.586
0.0641948	263.343
0.0645654	264.102
0.0649382	264.863
0.0653131	265.626
0.0656901	266.392
0.0660693	267.16
0.0664508	267.93
0.0668344	268.702
0.0672202	269.477
0.0676083	270.253
0.0679986	271.032
0.0683912	271.814
0.068786	272.597
0.0691831	273.383
0.0695825	274.171
0.0699842	274.961
0.0703882	275.754
0.0707946	276.548
0.0712033	277.346
0.0716143	278.145
0.0720278	278.947
0.0724436	279.751
0.0728618	280.557
0.0732825	281.366
0.0737055	282.177
0.074131	282.99
0.074559	283.806
0.0749894	284.624
0.0754223	285.444
0.0758578	286.267
0.0762957	287.092
0.0767361	287.92
0.0771792	288.749
0.0776247	289.582
0.0780728	290.416
0.0785236	291.253
0.0789769	292.093
0.0794328	292.935
0.0798914	293.779
0.0803526	294.626
0.0808165	295.475
0.0812831	296.327
0.0817523	297.181
0.0822243	298.038
0.082699	298.897
0.0831764	299.758
0.0836566	300.622
0.0841395	301.489
0.0846253	302.358
0.0851138	303.229
0.0856052	304.103
0.0860994	304.98
0.0865964	305.859
0.0870964	306.741
0.0875992	307.625
0.0881049	308.511
0.0886135	309.401
0.0891251	310.292
0.0896396	311.187
0.0901571	312.084
0.0906776	312.983
0.0912011	313.885
0.0917276	314.79
0.0922571	315.697
0.0927897	316.607
0.0933254	317.52
0.0938642	318.435
0.0944061	319.353
0.0949511	320.274
0.0954993	321.197
0.0960506	322.123
0.0966051	323.051
0.0971628	323.982
0.0977237	324.916
0.0982879	325.853
0.0988553	326.792
0.099426	327.734
0.1	328.678
0.100577	329.626
0.101158	330.576
0.101742	331.529
0.102329	332.484
0.10292	333.443
0.103514	334.404
0.104112	335.368
0.104713	336.334
0.105317	337.304
0.105925	338.276
0.106537	339.251
0.107152	340.229
0.107771	341.21
0.108393	342.193
0.109018	343.179
0.109648	344.169
0.110281	345.161
0.110917	346.155
0.111558	347.153
0.112202	348.154
0.11285	349.157
0.113501	350.164
0.114156	351.173
0.114815	352.185
0.115478	353.2
0.116145	354.218
0.116815	355.239
0.11749	356.263
0.118168	357.29
0.11885	358.32
0.119536	359.353
0.120226	360.389
0.120921	361.427
0.121619	362.469
0.122321	363.514
0.123027	364.562
0.123737	365.613
0.124451	366.666
0.12517	367.723
0.125893	368.783
0.126619	369.846
0.12735	370.912
0.128086	371.981
0.128825	373.054
0.129569	374.129
0.130317	375.207
0.131069	376.289
0.131826	377.373
0.132587	378.461
0.133352	379.552
0.134122	380.646
0.134896	381.743
0.135675	382.843
0.136458	383.947
0.137246	385.054
0.138038	386.163
0.138835	387.276
0.139637	388.393
0.140443	389.512
0.141254	390.635
0.142069	391.761
0.142889	392.89
0.143714	394.023
0.144544	395.158
0.145378	396.297
0.146218	397.44
0.147062	398.585
0.147911	399.734
0.148765	400.886
0.149624	402.042
0.150487	403.201
0.151356	404.363
0.15223	405.528
0.153109	406.697
0.153993	407.869
0.154882	409.045
0.155776	410.224
0.156675	411.406
0.15758	412.592
0.158489	413.782
0.159404	414.974
0.160325	416.17
0.16125	417.37
0.162181	418.573
0.163117	419.779
0.164059	420.989
0.165006	422.203
0.165959	423.42
0.166917	424.64
0.16788	425.864
0.16885	427.092
0.169824	428.323
0.170805	429.557
0.171791	430.795
0.172783	432.037
0.17378	433.282
0.174783	434.531
0.175792	435.784
0.176807	437.04
0.177828	438.3
0.178855	439.563
0.179887	440.83
0.180926	442.101
0.18197	443.375
0.183021	444.653
0.184077	445.935
0.18514	447.22
0.186209	448.509
0.187284	449.802
0.188365	451.098
0.189452	452.398
0.190546	453.702
0.191646	455.01
0.192752	456.322
0.193865	457.637
0.194984	458.956
0.19611	460.279
0.197242	461.606
0.198381	462.936
0.199526	464.271
0.200678	465.609
0.201837	466.951
0.203002	468.297
0.204174	469.647
0.205353	471
0.206538	472.358
0.20773	473.719
0.20893	475.085
0.210136	476.454
0.211349	477.827
0.212569	479.205
0.213796	480.586
0.21503	481.971
0.216272	483.36
0.21752	484.754
0.218776	486.151
0.220039	487.552
0.221309	488.958
0.222587	490.367
0.223872	491.78
0.225165	493.198
0.226464	494.619
0.227772	496.045
0.229087	497.475
0.230409	498.909
0.231739	500.347
0.233077	501.789
0.234423	503.235
0.235776	504.686
0.237137	506.141
0.238506	507.599
0.239883	509.063
0.241268	510.53
0.242661	512.001
0.244062	513.477
0.245471	514.957
0.246888	516.442
0.248313	517.93
0.249747	519.423
0.251189	520.92
0.252639	522.422
0.254097	523.927
0.255564	525.438
0.25704	526.952
0.258523	528.471
0.260016	529.994
0.261517	531.522
0.263027	533.054
0.264545	534.59
0.266073	536.131
0.267609	537.677
0.269153	539.226
0.270707	540.781
0.27227	542.339
0.273842	543.903
0.275423	545.47
0.277013	547.043
0.278612	548.619
0.280221	550.201
0.281838	551.787
0.283465	553.377
0.285102	554.972
0.286748	556.572
0.288403	558.176
0.290068	559.785
0.291743	561.398
0.293427	563.017
0.295121	564.639
0.296825	566.267
0.298538	567.899
0.300262	569.536
0.301995	571.178
0.303739	572.824
0.305492	574.475
0.307256	576.131
0.30903	577.791
0.310814	579.457
0.312608	581.127
0.314413	582.802
0.316228	584.482
0.318053	586.167
0.31989	587.856
0.321736	589.551
0.323594	591.25
0.325462	592.954
0.327341	594.663
0.32923	596.377
0.331131	598.096
0.333043	599.82
0.334965	601.549
0.336899	603.283
0.338844	605.022
0.3408	606.766
0.342768	608.515
0.344747	610.269
0.346737	612.028
0.348739	613.792
0.350752	615.561
0.352777	617.335
0.354813	619.115
0.356862	620.899
0.358922	622.689
0.360994	624.484
0.363078	626.284
0.365174	628.089
0.367282	629.899
0.369403	631.715
0.371535	633.536
0.37368	635.362
0.375837	637.193
0.378007	639.03
0.380189	640.872
0.382384	642.719
0.384592	644.572
0.386812	646.429
0.389045	648.293
0.391291	650.161
0.39355	652.035
0.395822	653.915
0.398107	655.8
0.400405	657.69
0.402717	659.586
0.405042	661.487
0.40738	663.393
0.409732	665.306
0.412098	667.223
0.414477	669.146
0.416869	671.075
0.419276	673.009
0.421697	674.949
0.424131	676.895
0.42658	678.846
0.429042	680.802
0.431519	682.765
0.43401	684.733
0.436516	686.706
0.439036	688.686
0.44157	690.671
0.44412	692.662
0.446684	694.658
0.449262	696.66
0.451856	698.668
0.454465	700.682
0.457088	702.702
0.459727	704.727
0.462381	706.759
0.46505	708.796
0.467735	710.839
0.470435	712.888
0.473151	714.943
0.475883	717.003
0.47863	719.07
0.481393	721.143
0.484172	723.221
0.486968	725.306
0.489779	727.396
0.492606	729.493
0.49545	731.596
0.49831	733.704
0.501187	735.819
0.504081	737.94
0.506991	740.067
0.509918	742.2
0.512861	744.34
0.515822	746.485
0.5188	748.637
0.521795	750.795
0.524807	752.959
0.527837	755.129
0.530884	757.306
0.533949	759.488
0.537032	761.678
0.540132	763.873
0.54325	766.075
0.546387	768.283
0.549541	770.497
0.552713	772.718
0.555904	774.945
0.559114	777.179
0.562341	779.419
0.565588	781.666
0.568853	783.919
0.572137	786.178
0.57544	788.445
0.578762	790.717
0.582103	792.996
0.585464	795.282
0.588844	797.574
0.592243	799.873
0.595662	802.179
0.599101	804.491
0.60256	806.81
0.606038	809.135
0.609537	811.468
0.613056	813.806
