Stopping power dEdx from Ionisation for Cl35[0.0] Z = 17 in Water, process name: ionIoni
E [MeV]	dEdx [MeV/mm]
0.001	22.5989
0.00100577	22.6644
0.00101158	22.7301
0.00101742	22.796
0.00102329	22.8621
0.0010292	22.9283
0.00103514	22.9948
0.00104112	23.0615
0.00104713	23.1283
0.00105317	23.1953
0.00105925	23.2626
0.00106537	23.33
0.00107152	23.3976
0.00107771	23.4654
0.00108393	23.5334
0.00109018	23.6016
0.00109648	23.67
0.00110281	23.7386
0.00110917	23.8074
0.00111558	23.8764
0.00112202	23.9456
0.0011285	24.015
0.00113501	24.0846
0.00114156	24.1544
0.00114815	24.2244
0.00115478	24.2946
0.00116145	24.365
0.00116815	24.4356
0.0011749	24.5064
0.00118168	24.5774
0.0011885	24.6486
0.00119536	24.72
0.00120226	24.7917
0.00120921	24.8635
0.00121619	24.9355
0.00122321	25.0078
0.00123027	25.0802
0.00123737	25.1529
0.00124451	25.2258
0.0012517	25.2988
0.00125893	25.3721
0.00126619	25.4456
0.0012735	25.5194
0.00128086	25.5933
0.00128825	25.6674
0.00129569	25.7418
0.00130317	25.8163
0.00131069	25.8911
0.00131826	25.9661
0.00132587	26.0413
0.00133352	26.1168
0.00134122	26.1924
0.00134896	26.2683
0.00135675	26.3444
0.00136458	26.4207
0.00137246	26.4972
0.00138038	26.574
0.00138835	26.6509
0.00139637	26.7281
0.00140443	26.8055
0.00141254	26.8832
0.00142069	26.961
0.00142889	27.0391
0.00143714	27.1174
0.00144544	27.196
0.00145378	27.2747
0.00146218	27.3537
0.00147062	27.4329
0.00147911	27.5124
0.00148765	27.592
0.00149624	27.672
0.00150487	27.7521
0.00151356	27.8324
0.0015223	27.913
0.00153109	27.9939
0.00153993	28.0749
0.00154882	28.1562
0.00155776	28.2378
0.00156675	28.3195
0.0015758	28.4015
0.00158489	28.4838
0.00159404	28.5662
0.00160325	28.6489
0.0016125	28.7319
0.00162181	28.8151
0.00163117	28.8985
0.00164059	28.9822
0.00165006	29.0661
0.00165959	29.1502
0.00166917	29.2346
0.0016788	29.3193
0.0016885	29.4042
0.00169824	29.4893
0.00170805	29.5746
0.00171791	29.6603
0.00172783	29.7461
0.0017378	29.8322
0.00174783	29.9186
0.00175792	30.0052
0.00176807	30.0921
0.00177828	30.1792
0.00178855	30.2665
0.00179887	30.3542
0.00180926	30.442
0.0018197	30.5301
0.00183021	30.6185
0.00184077	30.7071
0.0018514	30.796
0.00186209	30.8852
0.00187284	30.9745
0.00188365	31.0642
0.00189452	31.1541
0.00190546	31.2443
0.00191646	31.3347
0.00192752	31.4254
0.00193865	31.5164
0.00194984	31.6076
0.0019611	31.699
0.00197242	31.7908
0.00198381	31.8828
0.00199526	31.9751
0.00200678	32.0676
0.00201837	32.1604
0.00203002	32.2535
0.00204174	32.3468
0.00205353	32.4404
0.00206538	32.5343
0.0020773	32.6284
0.0020893	32.7229
0.00210136	32.8176
0.00211349	32.9125
0.00212569	33.0078
0.00213796	33.1033
0.0021503	33.1991
0.00216272	33.2951
0.0021752	33.3915
0.00218776	33.4881
0.00220039	33.585
0.00221309	33.6822
0.00222587	33.7796
0.00223872	33.8774
0.00225165	33.9754
0.00226464	34.0737
0.00227772	34.1723
0.00229087	34.2711
0.00230409	34.3703
0.00231739	34.4697
0.00233077	34.5695
0.00234423	34.6695
0.00235776	34.7698
0.00237137	34.8704
0.00238506	34.9712
0.00239883	35.0724
0.00241268	35.1739
0.00242661	35.2756
0.00244062	35.3777
0.00245471	35.48
0.00246888	35.5827
0.00248313	35.6856
0.00249747	35.7888
0.00251189	35.8924
0.00252639	35.9962
0.00254097	36.1003
0.00255564	36.2047
0.0025704	36.3095
0.00258523	36.4145
0.00260016	36.5198
0.00261517	36.6255
0.00263027	36.7314
0.00264545	36.8377
0.00266073	36.9442
0.00267609	37.0511
0.00269153	37.1582
0.00270707	37.2657
0.0027227	37.3735
0.00273842	37.4816
0.00275423	37.59
0.00277013	37.6987
0.00278612	37.8078
0.00280221	37.9171
0.00281838	38.0268
0.00283465	38.1368
0.00285102	38.2471
0.00286748	38.3577
0.00288403	38.4686
0.00290068	38.5799
0.00291743	38.6914
0.00293427	38.8033
0.00295121	38.9155
0.00296825	39.0281
0.00298538	39.1409
0.00300262	39.2541
0.00301995	39.3677
0.00303739	39.4815
0.00305492	39.5957
0.00307256	39.7102
0.0030903	39.825
0.00310814	39.9402
0.00312608	40.0557
0.00314413	40.1715
0.00316228	40.2877
0.00318053	40.4042
0.0031989	40.521
0.00321736	40.6382
0.00323594	40.7557
0.00325462	40.8735
0.00327341	40.9917
0.0032923	41.1102
0.00331131	41.2291
0.00333043	41.3483
0.00334965	41.4678
0.00336899	41.5877
0.00338844	41.708
0.003408	41.8286
0.00342768	41.9495
0.00344747	42.0708
0.00346737	42.1924
0.00348739	42.3144
0.00350752	42.4368
0.00352777	42.5595
0.00354813	42.6825
0.00356862	42.8059
0.00358922	42.9297
0.00360994	43.0538
0.00363078	43.1782
0.00365174	43.3031
0.00367282	43.4283
0.00369403	43.5538
0.00371535	43.6797
0.0037368	43.806
0.00375837	43.9326
0.00378007	44.0596
0.00380189	44.187
0.00382384	44.3147
0.00384592	44.4428
0.00386812	44.5713
0.00389045	44.7001
0.00391291	44.8294
0.0039355	44.959
0.00395822	45.0889
0.00398107	45.2192
0.00400405	45.35
0.00402717	45.481
0.00405042	45.6125
0.0040738	45.7444
0.00409732	45.8766
0.00412098	46.0092
0.00414477	46.1422
0.00416869	46.2755
0.00419276	46.4093
0.00421697	46.5434
0.00424131	46.678
0.0042658	46.8129
0.00429042	46.9482
0.00431519	47.0839
0.0043401	47.22
0.00436516	47.3565
0.00439036	47.4933
0.0044157	47.6306
0.0044412	47.7683
0.00446684	47.9063
0.00449262	48.0448
0.00451856	48.1836
0.00454465	48.3229
0.00457088	48.4625
0.00459727	48.6026
0.00462381	48.7431
0.0046505	48.8839
0.00467735	49.0252
0.00470435	49.1669
0.00473151	49.309
0.00475883	49.4515
0.0047863	49.5944
0.00481393	49.7377
0.00484172	49.8814
0.00486968	50.0256
0.00489779	50.1702
0.00492606	50.3151
0.0049545	50.4605
0.0049831	50.6063
0.00501187	50.7526
0.00504081	50.8992
0.00506991	51.0463
0.00509918	51.1938
0.00512861	51.3418
0.00515822	51.4901
0.005188	51.7681
0.00521795	51.9173
0.00524807	52.0669
0.00527837	52.217
0.00530884	52.3675
0.00533949	52.5184
0.00537032	52.6698
0.00540132	52.8216
0.0054325	52.9739
0.00546387	53.1266
0.00549541	53.2797
0.00552713	53.4333
0.00555904	53.5873
0.00559114	53.7418
0.00562341	53.8967
0.00565588	54.052
0.00568853	54.2078
0.00572137	54.3641
0.0057544	54.5208
0.00578762	54.6779
0.00582103	54.8355
0.00585464	54.9936
0.00588844	55.1521
0.00592243	55.311
0.00595662	55.4705
0.00599101	55.6304
0.0060256	55.7907
0.00606038	55.9515
0.00609537	56.1128
0.00613056	56.2745
0.00616595	56.4367
0.00620155	56.5994
0.00623735	56.7625
0.00627336	56.9262
0.00630957	57.0902
0.006346	57.2548
0.00638263	57.4198
0.00641948	57.5853
0.00645654	57.7513
0.00649382	57.9178
0.00653131	58.0847
0.00656901	58.2521
0.00660693	58.42
0.00664508	58.5884
0.00668344	58.7573
0.00672202	58.9267
0.00676083	59.0965
0.00679986	59.2669
0.00683912	59.4377
0.0068786	59.609
0.00691831	59.7808
0.00695825	59.9531
0.00699842	60.1259
0.00703882	60.2992
0.00707946	60.473
0.00712033	60.6474
0.00716143	60.8222
0.00720278	60.9975
0.00724436	61.1733
0.00728618	61.3496
0.00732825	61.5265
0.00737055	61.7038
0.0074131	61.8816
0.0074559	62.06
0.00749894	62.2389
0.00754223	62.4183
0.00758578	62.5982
0.00762957	62.7786
0.00767361	62.9596
0.00771792	63.1411
0.00776247	63.3231
0.00780728	63.5056
0.00785236	63.6886
0.00789769	63.8722
0.00794328	64.0563
0.00798914	64.2409
0.00803526	64.4261
0.00808165	64.6118
0.00812831	64.798
0.00817523	64.9848
0.00822243	65.1721
0.0082699	65.36
0.00831764	65.5484
0.00836566	65.7373
0.00841395	65.9268
0.00846253	66.1168
0.00851138	66.3074
0.00856052	66.4985
0.00860994	66.6902
0.00865964	66.8824
0.00870964	67.0752
0.00875992	67.2685
0.00881049	67.4624
0.00886135	67.6569
0.00891251	67.8519
0.00896396	68.0475
0.00901571	68.2436
0.00906776	68.4403
0.00912011	68.6376
0.00917276	68.8354
0.00922571	69.0338
0.00927897	69.2328
0.00933254	69.4324
0.00938642	69.6325
0.00944061	69.8332
0.00949511	70.0345
0.00954993	70.2363
0.00960506	70.4388
0.00966051	70.6418
0.00971628	70.8454
0.00977237	71.0496
0.00982879	71.2544
0.00988553	71.4598
0.0099426	71.6658
0.01	71.8724
0.0100577	72.0795
0.0101158	72.2873
0.0101742	72.4956
0.0102329	72.7046
0.010292	72.9142
0.0103514	73.1243
0.0104112	73.3351
0.0104713	73.5465
0.0105317	73.7585
0.0105925	73.9711
0.0106537	74.1843
0.0107152	74.3981
0.0107771	74.6125
0.0108393	74.8276
0.0109018	75.0433
0.0109648	75.2596
0.0110281	75.4765
0.0110917	75.6941
0.0111558	75.9123
0.0112202	76.1311
0.011285	76.3505
0.0113501	76.5706
0.0114156	76.7913
0.0114815	77.0126
0.0115478	77.2346
0.0116145	77.4572
0.0116815	77.6805
0.011749	77.9044
0.0118168	78.1289
0.011885	78.3541
0.0119536	78.58
0.0120226	78.8065
0.0120921	79.0336
0.0121619	79.2614
0.0122321	79.4899
0.0123027	79.719
0.0123737	79.9488
0.0124451	80.1792
0.012517	80.4103
0.0125893	80.6421
0.0126619	80.8745
0.012735	81.1077
0.0128086	81.3414
0.0128825	81.5759
0.0129569	81.811
0.0130317	82.0468
0.0131069	82.2833
0.0131826	82.5205
0.0132587	82.7584
0.0133352	82.9969
0.0134122	83.2361
0.0134896	83.476
0.0135675	83.7167
0.0136458	83.958
0.0137246	84.2
0.0138038	84.4427
0.0138835	84.686
0.0139637	84.9301
0.0140443	85.1749
0.0141254	85.4205
0.0142069	85.6667
0.0142889	85.9136
0.0143714	86.1612
0.0144544	86.4096
0.0145378	86.6586
0.0146218	86.9084
0.0147062	87.1589
0.0147911	87.4102
0.0148765	87.6621
0.0149624	87.9148
0.0150487	88.1682
0.0151356	88.4223
0.015223	88.6772
0.0153109	88.9328
0.0153993	89.1891
0.0154882	89.4462
0.0155776	89.704
0.0156675	89.9626
0.015758	90.2219
0.0158489	90.4819
0.0159404	90.7427
0.0160325	91.0043
0.016125	91.2666
0.0162181	91.5297
0.0163117	91.7935
0.0164059	92.0581
0.0165006	92.3234
0.0165959	92.5895
0.0166917	92.8564
0.016788	93.1241
0.016885	93.3925
0.0169824	93.6617
0.0170805	93.9316
0.0171791	94.2024
0.0172783	94.4739
0.017378	94.7462
0.0174783	95.0193
0.0175792	95.2932
0.0176807	95.5679
0.0177828	95.8433
0.0178855	96.1196
0.0179887	96.3966
0.0180926	96.6745
0.018197	96.9531
0.0183021	97.2326
0.0184077	97.5129
0.018514	97.7939
0.0186209	98.0758
0.0187284	98.3585
0.0188365	98.642
0.0189452	98.9263
0.0190546	99.2115
0.0191646	99.4974
0.0192752	99.7842
0.0193865	100.072
0.0194984	100.36
0.019611	100.65
0.0197242	100.94
0.0198381	101.231
0.0199526	101.522
0.0200678	101.815
0.0201837	102.108
0.0203002	102.403
0.0204174	102.698
0.0205353	102.994
0.0206538	103.291
0.020773	103.589
0.020893	103.887
0.0210136	104.187
0.0211349	104.487
0.0212569	104.788
0.0213796	105.09
0.021503	105.393
0.0216272	105.697
0.021752	106.001
0.0218776	106.307
0.0220039	106.613
0.0221309	106.921
0.0222587	107.229
0.0223872	107.538
0.0225165	107.848
0.0226464	108.159
0.0227772	108.471
0.0229087	108.783
0.0230409	109.097
0.0231739	109.411
0.0233077	109.727
0.0234423	110.043
0.0235776	110.36
0.0237137	110.678
0.0238506	110.997
0.0239883	111.317
0.0241268	111.638
0.0242661	111.96
0.0244062	112.282
0.0245471	112.606
0.0246888	112.931
0.0248313	113.256
0.0249747	113.583
0.0251189	113.91
0.0252639	114.238
0.0254097	114.568
0.0255564	114.898
0.025704	115.229
0.0258523	115.561
0.0260016	115.894
0.0261517	116.228
0.0263027	116.563
0.0264545	116.899
0.0266073	117.236
0.0267609	117.574
0.0269153	117.913
0.0270707	118.253
0.027227	118.594
0.0273842	118.936
0.0275423	119.278
0.0277013	119.622
0.0278612	119.967
0.0280221	120.313
0.0281838	120.66
0.0283465	121.007
0.0285102	121.356
0.0286748	121.706
0.0288403	122.057
0.0290068	122.409
0.0291743	122.761
0.0293427	123.115
0.0295121	123.47
0.0296825	123.826
0.0298538	124.183
0.0300262	124.541
0.0301995	124.9
0.0303739	125.26
0.0305492	125.621
0.0307256	125.983
0.030903	126.346
0.0310814	126.71
0.0312608	127.076
0.0314413	127.442
0.0316228	127.809
0.0318053	128.178
0.031989	128.547
0.0321736	128.917
0.0323594	129.289
0.0325462	129.662
0.0327341	130.035
0.032923	130.41
0.0331131	130.786
0.0333043	131.163
0.0334965	131.541
0.0336899	131.92
0.0338844	132.301
0.03408	132.682
0.0342768	133.064
0.0344747	133.448
0.0346737	133.833
0.0348739	134.218
0.0350752	134.605
0.0352777	134.993
0.0354813	135.382
0.0356862	135.773
0.0358922	136.164
0.0360994	136.556
0.0363078	136.95
0.0365174	137.345
0.0367282	137.741
0.0369403	138.138
0.0371535	138.536
0.037368	138.935
0.0375837	139.336
0.0378007	139.737
0.0380189	140.14
0.0382384	140.544
0.0384592	140.949
0.0386812	141.355
0.0389045	141.763
0.0391291	142.171
0.039355	142.581
0.0395822	142.992
0.0398107	143.404
0.0400405	143.818
0.0402717	144.232
0.0405042	144.648
0.040738	145.065
0.0409732	145.483
0.0412098	145.902
0.0414477	146.323
0.0416869	146.745
0.0419276	147.167
0.0421697	147.592
0.0424131	148.017
0.042658	148.444
0.0429042	148.872
0.0431519	149.301
0.043401	149.731
0.0436516	150.163
0.0439036	150.595
0.044157	151.03
0.044412	151.465
0.0446684	151.901
0.0449262	152.339
0.0451856	152.778
0.0454465	153.219
0.0457088	153.66
0.0459727	154.103
0.0462381	154.547
0.046505	154.993
0.0467735	155.44
0.0470435	155.888
0.0473151	156.337
0.0475883	156.788
0.047863	157.24
0.0481393	157.693
0.0484172	158.147
0.0486968	158.603
0.0489779	159.06
0.0492606	159.519
0.049545	159.979
0.049831	160.44
0.0501187	160.902
0.0504081	161.366
0.0506991	161.831
0.0509918	162.298
0.0512861	162.765
0.0515822	163.234
0.05188	163.705
0.0521795	164.177
0.0524807	164.65
0.0527837	165.125
0.0530884	165.601
0.0533949	166.078
0.0537032	166.557
0.0540132	167.037
0.054325	167.518
0.0546387	168.001
0.0549541	168.485
0.0552713	168.971
0.0555904	169.458
0.0559114	169.946
0.0562341	170.436
0.0565588	170.927
0.0568853	171.42
0.0572137	171.914
0.057544	172.41
0.0578762	172.907
0.0582103	173.405
0.0585464	173.905
0.0588844	174.406
0.0592243	174.909
0.0595662	175.413
0.0599101	175.919
0.060256	176.426
0.0606038	176.934
0.0609537	177.444
0.0613056	177.956
0.0616595	178.469
0.0620155	178.983
0.0623735	179.499
0.0627336	180.016
0.0630957	180.535
0.06346	181.056
0.0638263	181.577
0.0641948	182.101
0.0645654	182.626
0.0649382	183.152
0.0653131	183.68
0.0656901	184.209
0.0660693	184.74
0.0664508	185.273
0.0668344	185.807
0.0672202	186.342
0.0676083	186.88
0.0679986	187.418
0.0683912	187.958
0.068786	188.5
0.0691831	189.044
0.0695825	189.588
0.0699842	190.135
0.0703882	190.683
0.0707946	191.233
0.0712033	191.784
0.0716143	192.337
0.0720278	192.891
0.0724436	193.447
0.0728618	194.005
0.0732825	194.564
0.0737055	195.125
0.074131	195.687
0.074559	196.251
0.0749894	196.817
0.0754223	197.384
0.0758578	197.953
0.0762957	198.523
0.0767361	199.096
0.0771792	199.67
0.0776247	200.245
0.0780728	200.822
0.0785236	201.401
0.0789769	201.982
0.0794328	202.564
0.0798914	203.148
0.0803526	203.733
0.0808165	204.32
0.0812831	204.909
0.0817523	205.5
0.0822243	206.092
0.082699	206.686
0.0831764	207.282
0.0836566	207.88
0.0841395	208.479
0.0846253	209.08
0.0851138	209.682
0.0856052	210.287
0.0860994	210.893
0.0865964	211.501
0.0870964	212.11
0.0875992	212.722
0.0881049	213.335
0.0886135	213.95
0.0891251	214.566
0.0896396	215.185
0.0901571	215.805
0.0906776	216.427
0.0912011	217.051
0.0917276	217.677
0.0922571	218.304
0.0927897	218.933
0.0933254	219.564
0.0938642	220.197
0.0944061	220.832
0.0949511	221.468
0.0954993	222.107
0.0960506	222.747
0.0966051	223.389
0.0971628	224.033
0.0977237	224.679
0.0982879	225.326
0.0988553	225.976
0.099426	226.627
0.1	227.28
0.100577	227.935
0.101158	228.592
0.101742	229.251
0.102329	229.912
0.10292	230.575
0.103514	231.239
0.104112	231.906
0.104713	232.574
0.105317	233.245
0.105925	233.917
0.106537	234.591
0.107152	235.267
0.107771	235.946
0.108393	236.626
0.109018	237.308
0.109648	237.992
0.110281	238.678
0.110917	239.366
0.111558	240.056
0.112202	240.748
0.11285	241.441
0.113501	242.137
0.114156	242.835
0.114815	243.535
0.115478	244.237
0.116145	244.941
0.116815	245.647
0.11749	246.355
0.118168	247.065
0.11885	247.777
0.119536	248.492
0.120226	249.208
0.120921	249.926
0.121619	250.647
0.122321	251.369
0.123027	252.094
0.123737	252.82
0.124451	253.549
0.12517	254.28
0.125893	255.013
0.126619	255.748
0.12735	256.485
0.128086	257.224
0.128825	257.966
0.129569	258.709
0.130317	259.455
0.131069	260.203
0.131826	260.953
0.132587	261.705
0.133352	262.459
0.134122	263.216
0.134896	263.974
0.135675	264.735
0.136458	265.498
0.137246	266.264
0.138038	267.031
0.138835	267.801
0.139637	268.573
0.140443	269.347
0.141254	270.123
0.142069	270.902
0.142889	271.683
0.143714	272.466
0.144544	273.251
0.145378	274.039
0.146218	274.829
0.147062	275.621
0.147911	276.415
0.148765	277.212
0.149624	278.011
0.150487	278.812
0.151356	279.616
0.15223	280.422
0.153109	281.23
0.153993	282.041
0.154882	282.854
0.155776	283.669
0.156675	284.487
0.15758	285.307
0.158489	286.129
0.159404	286.954
0.160325	287.781
0.16125	288.61
0.162181	289.442
0.163117	290.276
0.164059	291.113
0.165006	291.952
0.165959	292.794
0.166917	293.638
0.16788	294.484
0.16885	295.333
0.169824	296.184
0.170805	297.038
0.171791	297.894
0.172783	298.753
0.17378	299.614
0.174783	300.477
0.175792	301.344
0.176807	302.212
0.177828	303.083
0.178855	303.957
0.179887	304.833
0.180926	305.712
0.18197	306.593
0.183021	307.476
0.184077	308.363
0.18514	309.252
0.186209	310.143
0.187284	311.037
0.188365	311.933
0.189452	312.833
0.190546	313.734
0.191646	314.639
0.192752	315.545
0.193865	316.455
0.194984	317.367
0.19611	318.282
0.197242	319.199
0.198381	320.119
0.199526	321.042
0.200678	321.967
0.201837	322.895
0.203002	323.826
0.204174	324.76
0.205353	325.696
0.206538	326.634
0.20773	327.576
0.20893	328.52
0.210136	329.467
0.211349	330.417
0.212569	331.369
0.213796	332.324
0.21503	333.282
0.216272	334.243
0.21752	335.206
0.218776	336.172
0.220039	337.141
0.221309	338.113
0.222587	339.088
0.223872	340.065
0.225165	341.045
0.226464	342.028
0.227772	343.014
0.229087	344.003
0.230409	344.994
0.231739	345.989
0.233077	346.986
0.234423	347.986
0.235776	348.989
0.237137	349.995
0.238506	351.004
0.239883	352.016
0.241268	353.03
0.242661	354.048
0.244062	355.068
0.245471	356.092
0.246888	357.118
0.248313	358.147
0.249747	359.18
0.251189	360.215
0.252639	361.253
0.254097	362.295
0.255564	363.339
0.25704	364.386
0.258523	365.436
0.260016	366.49
0.261517	367.546
0.263027	368.606
0.264545	369.668
0.266073	370.734
0.267609	371.802
0.269153	372.874
0.270707	373.949
0.27227	375.026
0.273842	376.107
0.275423	377.191
0.277013	378.279
0.278612	379.369
0.280221	380.463
0.281838	381.559
0.283465	382.659
0.285102	383.762
0.286748	384.868
0.288403	385.977
0.290068	387.09
0.291743	388.206
0.293427	389.325
0.295121	390.447
0.296825	391.572
0.298538	392.701
0.300262	393.833
0.301995	394.968
0.303739	396.106
0.305492	397.248
0.307256	398.393
0.30903	399.541
0.310814	400.693
0.312608	401.848
0.314413	403.006
0.316228	404.168
0.318053	405.333
0.31989	406.501
0.321736	407.673
0.323594	408.848
0.325462	410.026
0.327341	411.208
0.32923	412.394
0.331131	413.582
0.333043	414.774
0.334965	415.97
0.336899	417.169
0.338844	418.371
0.3408	419.577
0.342768	420.787
0.344747	421.999
0.346737	423.216
0.348739	424.436
0.350752	425.659
0.352777	426.886
0.354813	428.116
0.356862	429.35
0.358922	430.588
0.360994	431.829
0.363078	433.074
0.365174	434.322
0.367282	435.574
0.369403	436.829
0.371535	438.089
0.37368	439.351
0.375837	440.618
0.378007	441.888
0.380189	443.161
0.382384	444.439
0.384592	445.72
0.386812	447.004
0.389045	448.293
0.391291	449.585
0.39355	450.881
0.395822	452.181
0.398107	453.484
0.400405	454.791
0.402717	456.102
0.405042	457.417
0.40738	458.735
0.409732	460.057
0.412098	461.383
0.414477	462.713
0.416869	464.047
0.419276	465.384
0.421697	466.726
0.424131	468.071
0.42658	469.42
0.429042	470.773
0.431519	472.13
0.43401	473.491
0.436516	474.856
0.439036	476.225
0.44157	477.597
0.44412	478.974
0.446684	480.355
0.449262	481.739
0.451856	483.128
0.454465	484.52
0.457088	485.917
0.459727	487.317
0.462381	488.722
0.46505	490.131
0.467735	491.543
0.470435	492.96
0.473151	494.381
0.475883	495.806
0.47863	497.235
0.481393	498.668
0.484172	500.106
0.486968	501.547
0.489779	502.993
0.492606	504.443
0.49545	505.897
0.49831	507.355
0.501187	508.817
0.504081	510.284
0.506991	511.755
0.509918	513.23
0.512861	514.709
0.515822	516.193
0.5188	517.681
0.521795	519.173
0.524807	520.669
0.527837	522.17
0.530884	523.675
0.533949	525.184
0.537032	526.698
0.540132	528.216
0.54325	529.739
0.546387	531.266
0.549541	532.797
0.552713	534.333
0.555904	535.873
0.559114	537.418
0.562341	538.967
0.565588	540.52
0.568853	542.078
0.572137	543.641
0.57544	545.208
0.578762	546.779
0.582103	548.355
0.585464	549.936
0.588844	551.521
0.592243	553.11
0.595662	554.705
0.599101	556.304
0.60256	557.907
0.606038	559.515
0.609537	561.128
