Stopping power dEdx from Ionisation for deuteron Z = 1 in G4_TISSUE_SOFT_ICRP, process name: hIoni
E [MeV]	dEdx [MeV/mm]
0.001	12.2188
0.00100577	12.254
0.00101158	12.2893
0.00101742	12.3247
0.00102329	12.3602
0.0010292	12.3959
0.00103514	12.4316
0.00104112	12.4674
0.00104713	12.5034
0.00105317	12.5394
0.00105925	12.5755
0.00106537	12.6118
0.00107152	12.6481
0.00107771	12.6846
0.00108393	12.7212
0.00109018	12.7578
0.00109648	12.7946
0.00110281	12.8315
0.00110917	12.8685
0.00111558	12.9056
0.00112202	12.9428
0.0011285	12.9801
0.00113501	13.0175
0.00114156	13.055
0.00114815	13.0926
0.00115478	13.1304
0.00116145	13.1682
0.00116815	13.2062
0.0011749	13.2442
0.00118168	13.2824
0.0011885	13.3207
0.00119536	13.3591
0.00120226	13.3976
0.00120921	13.4362
0.00121619	13.4749
0.00122321	13.5138
0.00123027	13.5527
0.00123737	13.5918
0.00124451	13.631
0.0012517	13.6703
0.00125893	13.7097
0.00126619	13.7492
0.0012735	13.7888
0.00128086	13.8286
0.00128825	13.8684
0.00129569	13.9084
0.00130317	13.9485
0.00131069	13.9887
0.00131826	14.029
0.00132587	14.0694
0.00133352	14.11
0.00134122	14.1507
0.00134896	14.1915
0.00135675	14.2324
0.00136458	14.2734
0.00137246	14.3145
0.00138038	14.3558
0.00138835	14.3972
0.00139637	14.4387
0.00140443	14.4803
0.00141254	14.522
0.00142069	14.5639
0.00142889	14.6058
0.00143714	14.6479
0.00144544	14.6902
0.00145378	14.7325
0.00146218	14.775
0.00147062	14.8176
0.00147911	14.8603
0.00148765	14.9031
0.00149624	14.9461
0.00150487	14.9891
0.00151356	15.0323
0.0015223	15.0757
0.00153109	15.1191
0.00153993	15.1627
0.00154882	15.2064
0.00155776	15.2502
0.00156675	15.2942
0.0015758	15.3383
0.00158489	15.3825
0.00159404	15.4268
0.00160325	15.4713
0.0016125	15.5159
0.00162181	15.5606
0.00163117	15.6055
0.00164059	15.6504
0.00165006	15.6956
0.00165959	15.7408
0.00166917	15.7862
0.0016788	15.8317
0.0016885	15.8773
0.00169824	15.9231
0.00170805	15.969
0.00171791	16.015
0.00172783	16.0612
0.0017378	16.1075
0.00174783	16.1539
0.00175792	16.2004
0.00176807	16.2471
0.00177828	16.294
0.00178855	16.3409
0.00179887	16.388
0.00180926	16.4353
0.0018197	16.4826
0.00183021	16.5302
0.00184077	16.5778
0.0018514	16.6256
0.00186209	16.6735
0.00187284	16.7216
0.00188365	16.7698
0.00189452	16.8181
0.00190546	16.8666
0.00191646	16.9152
0.00192752	16.9639
0.00193865	17.0128
0.00194984	17.0619
0.0019611	17.1111
0.00197242	17.1604
0.00198381	17.2098
0.00199526	17.2594
0.00200678	17.3092
0.00201837	17.3591
0.00203002	17.4091
0.00204174	17.4593
0.00205353	17.5096
0.00206538	17.5601
0.0020773	17.6107
0.0020893	17.6615
0.00210136	17.7124
0.00211349	17.7634
0.00212569	17.8146
0.00213796	17.866
0.0021503	17.9175
0.00216272	17.9691
0.0021752	18.0209
0.00218776	18.0729
0.00220039	18.1249
0.00221309	18.1772
0.00222587	18.2296
0.00223872	18.2821
0.00225165	18.3348
0.00226464	18.3877
0.00227772	18.4407
0.00229087	18.4938
0.00230409	18.5471
0.00231739	18.6006
0.00233077	18.6542
0.00234423	18.708
0.00235776	18.7619
0.00237137	18.816
0.00238506	18.8702
0.00239883	18.9246
0.00241268	18.9792
0.00242661	19.0339
0.00244062	19.0887
0.00245471	19.1437
0.00246888	19.1989
0.00248313	19.2543
0.00249747	19.3098
0.00251189	19.3654
0.00252639	19.4212
0.00254097	19.4772
0.00255564	19.5334
0.0025704	19.5897
0.00258523	19.6461
0.00260016	19.7027
0.00261517	19.7595
0.00263027	19.8165
0.00264545	19.8736
0.00266073	19.9309
0.00267609	19.9883
0.00269153	20.046
0.00270707	20.1037
0.0027227	20.1617
0.00273842	20.2198
0.00275423	20.2781
0.00277013	20.3365
0.00278612	20.3951
0.00280221	20.4539
0.00281838	20.5129
0.00283465	20.572
0.00285102	20.6313
0.00286748	20.6908
0.00288403	20.7504
0.00290068	20.8102
0.00291743	20.8702
0.00293427	20.9304
0.00295121	20.9907
0.00296825	21.0512
0.00298538	21.1119
0.00300262	21.1727
0.00301995	21.2338
0.00303739	21.295
0.00305492	21.3563
0.00307256	21.4179
0.0030903	21.4796
0.00310814	21.5415
0.00312608	21.6036
0.00314413	21.6659
0.00316228	21.7284
0.00318053	21.791
0.0031989	21.8538
0.00321736	21.9168
0.00323594	21.98
0.00325462	22.0433
0.00327341	22.1068
0.0032923	22.1706
0.00331131	22.2345
0.00333043	22.2986
0.00334965	22.3628
0.00336899	22.4273
0.00338844	22.4919
0.003408	22.5568
0.00342768	22.6218
0.00344747	22.687
0.00346737	22.7524
0.00348739	22.818
0.00350752	22.8837
0.00352777	22.9497
0.00354813	23.0158
0.00356862	23.0822
0.00358922	23.1487
0.00360994	23.2154
0.00363078	23.2823
0.00365174	23.3495
0.00367282	23.4168
0.00369403	23.4843
0.00371535	23.5519
0.0037368	23.6198
0.00375837	23.6879
0.00378007	23.7562
0.00380189	23.8247
0.00382384	23.8933
0.00384592	23.9622
0.00386812	24.0313
0.00389045	24.1005
0.00391291	24.17
0.0039355	24.2397
0.00395822	24.3095
0.00398107	24.3796
0.00400405	24.4499
0.00402717	24.5204
0.00405042	24.591
0.0040738	24.6619
0.00409732	24.733
0.00412098	24.8043
0.00414477	24.8758
0.00416869	24.9475
0.00419276	25.0194
0.00421697	25.0915
0.00424131	25.1638
0.0042658	25.2364
0.00429042	25.3091
0.00431519	25.3821
0.0043401	25.4552
0.00436516	25.5286
0.00439036	25.6022
0.0044157	25.676
0.0044412	25.75
0.00446684	25.8242
0.00449262	25.8986
0.00451856	25.9733
0.00454465	26.0481
0.00457088	26.1232
0.00459727	26.1985
0.00462381	26.274
0.0046505	26.3498
0.00467735	26.4257
0.00470435	26.5019
0.00473151	26.5783
0.00475883	26.6549
0.0047863	26.7317
0.00481393	26.8088
0.00484172	26.886
0.00486968	26.9635
0.00489779	27.0413
0.00492606	27.1192
0.0049545	27.1974
0.0049831	27.2758
0.00501187	27.3544
0.00504081	27.4332
0.00506991	27.5123
0.00509918	27.5916
0.00512861	27.6711
0.00515822	27.7509
0.005188	27.8309
0.00521795	27.9111
0.00524807	27.9915
0.00527837	28.0722
0.00530884	28.1531
0.00533949	28.2343
0.00537032	28.3157
0.00540132	28.3973
0.0054325	28.4791
0.00546387	28.5612
0.00549541	28.6435
0.00552713	28.7261
0.00555904	28.8089
0.00559114	28.8919
0.00562341	28.9752
0.00565588	29.0587
0.00568853	29.1425
0.00572137	29.2265
0.0057544	29.3107
0.00578762	29.3952
0.00582103	29.48
0.00585464	29.5649
0.00588844	29.6501
0.00592243	29.7356
0.00595662	29.8213
0.00599101	29.9073
0.0060256	29.9935
0.00606038	30.0799
0.00609537	30.1666
0.00613056	30.2536
0.00616595	30.3408
0.00620155	30.4282
0.00623735	30.5159
0.00627336	30.6039
0.00630957	30.6921
0.006346	30.7806
0.00638263	30.8693
0.00641948	30.9583
0.00645654	31.0475
0.00649382	31.137
0.00653131	31.2268
0.00656901	31.3168
0.00660693	31.407
0.00664508	31.4976
0.00668344	31.5883
0.00672202	31.6794
0.00676083	31.7707
0.00679986	31.8623
0.00683912	31.9541
0.0068786	32.0462
0.00691831	32.1386
0.00695825	32.2312
0.00699842	32.3241
0.00703882	32.4173
0.00707946	32.5107
0.00712033	32.6044
0.00716143	32.6984
0.00720278	32.7927
0.00724436	32.8872
0.00728618	32.982
0.00732825	33.0771
0.00737055	33.1724
0.0074131	33.268
0.0074559	33.3639
0.00749894	33.4601
0.00754223	33.5565
0.00758578	33.6532
0.00762957	33.7502
0.00767361	33.8475
0.00771792	33.9451
0.00776247	34.0429
0.00780728	34.141
0.00785236	34.2395
0.00789769	34.3381
0.00794328	34.4371
0.00798914	34.5364
0.00803526	34.6359
0.00808165	34.7358
0.00812831	34.8359
0.00817523	34.9363
0.00822243	35.037
0.0082699	35.138
0.00831764	35.2393
0.00836566	35.3408
0.00841395	35.4427
0.00846253	35.5449
0.00851138	35.6473
0.00856052	35.7501
0.00860994	35.8531
0.00865964	35.9564
0.00870964	36.0601
0.00875992	36.164
0.00881049	36.2683
0.00886135	36.3728
0.00891251	36.4776
0.00896396	36.5828
0.00901571	36.6882
0.00906776	36.794
0.00912011	36.9
0.00917276	37.0064
0.00922571	37.1131
0.00927897	37.22
0.00933254	37.3273
0.00938642	37.4349
0.00944061	37.5428
0.00949511	37.651
0.00954993	37.7595
0.00960506	37.8684
0.00966051	37.9775
0.00971628	38.087
0.00977237	38.1968
0.00982879	38.3069
0.00988553	38.4173
0.0099426	38.528
0.01	38.6391
0.0100577	38.7505
0.0101158	38.8621
0.0101742	38.9742
0.0102329	39.0865
0.010292	39.1992
0.0103514	39.3122
0.0104112	39.4255
0.0104713	39.5391
0.0105317	39.6531
0.0105925	39.7674
0.0106537	39.882
0.0107152	39.9969
0.0107771	40.1122
0.0108393	40.2278
0.0109018	40.3438
0.0109648	40.4601
0.0110281	40.5767
0.0110917	40.6937
0.0111558	40.811
0.0112202	40.9286
0.011285	41.0466
0.0113501	41.1649
0.0114156	41.2835
0.0114815	41.4025
0.0115478	41.5219
0.0116145	41.6415
0.0116815	41.7616
0.011749	41.8819
0.0118168	42.0027
0.011885	42.1237
0.0119536	42.2451
0.0120226	42.3669
0.0120921	42.489
0.0121619	42.6115
0.0122321	42.7343
0.0123027	42.8575
0.0123737	42.981
0.0124451	43.1049
0.012517	43.2292
0.0125893	43.3538
0.0126619	43.4787
0.012735	43.604
0.0128086	43.7297
0.0128825	43.8558
0.0129569	43.9822
0.0130317	44.109
0.0131069	44.2361
0.0131826	44.3636
0.0132587	44.4915
0.0133352	44.6197
0.0134122	44.7483
0.0134896	44.8773
0.0135675	45.0067
0.0136458	45.1364
0.0137246	45.2665
0.0138038	45.397
0.0138835	45.5278
0.0139637	45.659
0.0140443	45.7906
0.0141254	45.9226
0.0142069	46.055
0.0142889	46.1877
0.0143714	46.3209
0.0144544	46.4544
0.0145378	46.5883
0.0146218	46.7226
0.0147062	46.8573
0.0147911	46.9923
0.0148765	47.1278
0.0149624	47.2636
0.0150487	47.3998
0.0151356	47.5365
0.015223	47.6735
0.0153109	47.8109
0.0153993	47.9487
0.0154882	48.0869
0.0155776	48.2255
0.0156675	48.3645
0.015758	48.5039
0.0158489	48.6437
0.0159404	48.7839
0.0160325	48.9245
0.016125	49.0656
0.0162181	49.207
0.0163117	49.3488
0.0164059	49.4911
0.0165006	49.6337
0.0165959	49.7768
0.0166917	49.9203
0.016788	50.0641
0.016885	50.2084
0.0169824	50.3532
0.0170805	50.4983
0.0171791	50.6439
0.0172783	50.7898
0.017378	50.9362
0.0174783	51.083
0.0175792	51.2303
0.0176807	51.378
0.0177828	51.526
0.0178855	51.6746
0.0179887	51.8235
0.0180926	51.9729
0.018197	52.1227
0.0183021	52.2729
0.0184077	52.4236
0.018514	52.5747
0.0186209	52.7262
0.0187284	52.8782
0.0188365	53.0306
0.0189452	53.1835
0.0190546	53.3368
0.0191646	53.4905
0.0192752	53.6447
0.0193865	53.7993
0.0194984	53.9544
0.019611	54.1099
0.0197242	54.2659
0.0198381	54.4223
0.0199526	54.5792
0.0200678	54.7365
0.0201837	54.8857
0.0203002	55.0234
0.0204174	55.1613
0.0205353	55.2994
0.0206538	55.4379
0.020773	55.5766
0.020893	55.7157
0.0210136	55.855
0.0211349	55.9945
0.0212569	56.1344
0.0213796	56.2745
0.021503	56.415
0.0216272	56.5557
0.021752	56.6966
0.0218776	56.8379
0.0220039	56.9794
0.0221309	57.1212
0.0222587	57.2633
0.0223872	57.4057
0.0225165	57.5483
0.0226464	57.6912
0.0227772	57.8344
0.0229087	57.9779
0.0230409	58.1216
0.0231739	58.2656
0.0233077	58.4099
0.0234423	58.5545
0.0235776	58.6993
0.0237137	58.8444
0.0238506	58.9898
0.0239883	59.1354
0.0241268	59.2814
0.0242661	59.4276
0.0244062	59.574
0.0245471	59.7207
0.0246888	59.8677
0.0248313	60.015
0.0249747	60.1625
0.0251189	60.3103
0.0252639	60.4584
0.0254097	60.6067
0.0255564	60.7553
0.025704	60.9042
0.0258523	61.0533
0.0260016	61.2027
0.0261517	61.3523
0.0263027	61.5022
0.0264545	61.6524
0.0266073	61.8028
0.0267609	61.9535
0.0269153	62.1044
0.0270707	62.2556
0.027227	62.407
0.0273842	62.5588
0.0275423	62.7107
0.0277013	62.8629
0.0278612	63.0154
0.0280221	63.1681
0.0281838	63.321
0.0283465	63.4743
0.0285102	63.6277
0.0286748	63.7814
0.0288403	63.9354
0.0290068	64.0896
0.0291743	64.244
0.0293427	64.3987
0.0295121	64.5536
0.0296825	64.7088
0.0298538	64.8642
0.0300262	65.0198
0.0301995	65.1757
0.0303739	65.3318
0.0305492	65.4881
0.0307256	65.6447
0.030903	65.8015
0.0310814	65.9585
0.0312608	66.1158
0.0314413	66.2733
0.0316228	66.431
0.0318053	66.5889
0.031989	66.7471
0.0321736	66.9054
0.0323594	67.064
0.0325462	67.2228
0.0327341	67.3819
0.032923	67.5411
0.0331131	67.7006
0.0333043	67.8602
0.0334965	68.0201
0.0336899	68.1802
0.0338844	68.3405
0.03408	68.501
0.0342768	68.6617
0.0344747	68.8226
0.0346737	68.9837
0.0348739	69.145
0.0350752	69.3064
0.0352777	69.4681
0.0354813	69.63
0.0356862	69.792
0.0358922	69.9543
0.0360994	70.1167
0.0363078	70.2793
0.0365174	70.4421
0.0367282	70.6051
0.0369403	70.7682
0.0371535	70.9316
0.037368	71.0951
0.0375837	71.2587
0.0378007	71.4226
0.0380189	71.5866
0.0382384	71.7507
0.0384592	71.915
0.0386812	72.0795
0.0389045	72.2441
0.0391291	72.4089
0.039355	72.5739
0.0395822	72.7389
0.0398107	72.9042
0.0400405	73.0695
0.0402717	73.235
0.0405042	73.4007
0.040738	73.5665
0.0409732	73.7324
0.0412098	73.8984
0.0414477	74.0646
0.0416869	74.2309
0.0419276	74.3973
0.0421697	74.5638
0.0424131	74.7305
0.042658	74.8972
0.0429042	75.0641
0.0431519	75.2311
0.043401	75.3981
0.0436516	75.5653
0.0439036	75.7326
0.044157	75.8999
0.044412	76.0674
0.0446684	76.2349
0.0449262	76.4025
0.0451856	76.5702
0.0454465	76.738
0.0457088	76.9059
0.0459727	77.0738
0.0462381	77.2418
0.046505	77.4098
0.0467735	77.5779
0.0470435	77.7461
0.0473151	77.9143
0.0475883	78.0825
0.047863	78.2508
0.0481393	78.4192
0.0484172	78.5876
0.0486968	78.756
0.0489779	78.9244
0.0492606	79.0929
0.049545	79.2614
0.049831	79.4299
0.0501187	79.5984
0.0504081	79.7669
0.0506991	79.9354
0.0509918	80.104
0.0512861	80.2725
0.0515822	80.441
0.05188	80.6095
0.0521795	80.778
0.0524807	80.9464
0.0527837	81.1149
0.0530884	81.2833
0.0533949	81.4516
0.0537032	81.62
0.0540132	81.7883
0.054325	81.9565
0.0546387	82.1247
0.0549541	82.2928
0.0552713	82.4609
0.0555904	82.6289
0.0559114	82.7968
0.0562341	82.9646
0.0565588	83.1324
0.0568853	83.3001
0.0572137	83.4677
0.057544	83.6351
0.0578762	83.8025
0.0582103	83.9698
0.0585464	84.1369
0.0588844	84.304
0.0592243	84.4709
0.0595662	84.6377
0.0599101	84.8043
0.060256	84.9709
0.0606038	85.1372
0.0609537	85.3034
0.0613056	85.4695
0.0616595	85.6354
0.0620155	85.8011
0.0623735	85.9667
0.0627336	86.132
0.0630957	86.2972
0.06346	86.4622
0.0638263	86.627
0.0641948	86.7916
0.0645654	86.956
0.0649382	87.1202
0.0653131	87.2842
0.0656901	87.4479
0.0660693	87.6114
0.0664508	87.7746
0.0668344	87.9377
0.0672202	88.1004
0.0676083	88.2629
0.0679986	88.4252
0.0683912	88.5871
0.068786	88.7488
0.0691831	88.9102
0.0695825	89.0714
0.0699842	89.2322
0.0703882	89.3927
0.0707946	89.5529
0.0712033	89.7128
0.0716143	89.8724
0.0720278	90.0316
0.0724436	90.1905
0.0728618	90.3491
0.0732825	90.5073
0.0737055	90.6652
0.074131	90.8226
0.074559	90.9798
0.0749894	91.1365
0.0754223	91.2929
0.0758578	91.4488
0.0762957	91.6044
0.0767361	91.7596
0.0771792	91.9143
0.0776247	92.0687
0.0780728	92.2226
0.0785236	92.3761
0.0789769	92.5291
0.0794328	92.6817
0.0798914	92.8338
0.0803526	92.9855
0.0808165	93.1257
0.0812831	93.2577
0.0817523	93.389
0.0822243	93.5196
0.082699	93.6494
0.0831764	93.7786
0.0836566	93.907
0.0841395	94.0346
0.0846253	94.1615
0.0851138	94.2877
0.0856052	94.413
0.0860994	94.5376
0.0865964	94.6613
0.0870964	94.7843
0.0875992	94.9064
0.0881049	95.0277
0.0886135	95.1482
0.0891251	95.2678
0.0896396	95.3866
0.0901571	95.5045
0.0906776	95.6215
0.0912011	95.7377
0.0917276	95.8529
0.0922571	95.9673
0.0927897	96.0807
0.0933254	96.1932
0.0938642	96.3047
0.0944061	96.4153
0.0949511	96.525
0.0954993	96.6336
0.0960506	96.7413
0.0966051	96.848
0.0971628	96.9537
0.0977237	97.0584
0.0982879	97.1621
0.0988553	97.2647
0.099426	97.3663
0.1	97.4669
0.100577	97.5664
0.101158	97.6648
0.101742	97.7621
0.102329	97.8583
0.10292	97.9535
0.103514	98.0475
0.104112	98.1404
0.104713	98.2321
0.105317	98.3227
0.105925	98.4122
0.106537	98.5005
0.107152	98.5876
0.107771	98.6735
0.108393	98.7583
0.109018	98.8418
0.109648	98.9241
0.110281	99.0052
0.110917	99.085
0.111558	99.1636
0.112202	99.2409
0.11285	99.317
0.113501	99.3918
0.114156	99.4653
0.114815	99.5375
0.115478	99.6083
0.116145	99.6779
0.116815	99.7461
0.11749	99.813
0.118168	99.8786
0.11885	99.9428
0.119536	100.006
0.120226	100.067
0.120921	100.127
0.121619	100.186
0.122321	100.243
0.123027	100.299
0.123737	100.353
0.124451	100.406
0.12517	100.458
0.125893	100.508
0.126619	100.556
0.12735	100.604
0.128086	100.649
0.128825	100.693
0.129569	100.736
0.130317	100.777
0.131069	100.817
0.131826	100.855
0.132587	100.891
0.133352	100.926
0.134122	100.96
0.134896	100.992
0.135675	101.022
0.136458	101.051
0.137246	101.078
0.138038	101.104
0.138835	101.128
0.139637	101.15
0.140443	101.171
0.141254	101.19
0.142069	101.207
0.142889	101.223
0.143714	101.237
0.144544	101.25
0.145378	101.261
0.146218	101.27
0.147062	101.277
0.147911	101.283
0.148765	101.287
0.149624	101.29
0.150487	101.291
0.151356	101.29
0.15223	101.287
0.153109	101.283
0.153993	101.276
0.154882	101.269
0.155776	101.259
0.156675	101.248
0.15758	101.235
0.158489	101.22
0.159404	101.203
0.160325	101.185
0.16125	101.165
0.162181	101.143
0.163117	101.119
0.164059	101.094
0.165006	101.066
0.165959	101.037
0.166917	101.007
0.16788	100.974
0.16885	100.939
0.169824	100.903
0.170805	100.865
0.171791	100.825
0.172783	100.784
0.17378	100.74
0.174783	100.695
0.175792	100.648
0.176807	100.599
0.177828	100.548
0.178855	100.495
0.179887	100.441
0.180926	100.385
0.18197	100.327
0.183021	100.267
0.184077	100.205
0.18514	100.142
0.186209	100.076
0.187284	100.009
0.188365	99.9399
0.189452	99.869
0.190546	99.7963
0.191646	99.7218
0.192752	99.6454
0.193865	99.5672
0.194984	99.4872
0.19611	99.4053
0.197242	99.3216
0.198381	99.2361
0.199526	99.1488
0.200678	99.0597
0.201837	98.9688
0.203002	98.876
0.204174	98.7814
0.205353	98.6851
0.206538	98.5869
0.20773	98.4869
0.20893	98.3852
0.210136	98.2816
0.211349	98.1763
0.212569	98.0692
0.213796	97.9603
0.21503	97.8496
0.216272	97.7372
0.21752	97.623
0.218776	97.507
0.220039	97.3893
0.221309	97.2699
0.222587	97.1487
0.223872	97.0258
0.225165	96.9011
0.226464	96.7748
0.227772	96.6467
0.229087	96.5169
0.230409	96.3854
0.231739	96.2523
0.233077	96.1174
0.234423	95.9809
0.235776	95.8428
0.237137	95.7029
0.238506	95.5614
0.239883	95.4183
0.241268	95.2736
0.242661	95.1272
0.244062	94.9792
0.245471	94.8296
0.246888	94.6785
0.248313	94.5257
0.249747	94.3714
0.251189	94.2155
0.252639	94.0581
0.254097	93.8991
0.255564	93.7386
0.25704	93.5766
0.258523	93.413
0.260016	93.248
0.261517	93.0815
0.263027	92.9136
0.264545	92.7441
0.266073	92.5733
0.267609	92.4009
0.269153	92.2272
0.270707	92.0521
0.27227	91.8756
0.273842	91.6977
0.275423	91.5184
0.277013	91.3377
0.278612	91.1558
0.280221	90.9725
0.281838	90.7879
0.283465	90.602
0.285102	90.4148
0.286748	90.2263
0.288403	90.0366
0.290068	89.8456
0.291743	89.6534
0.293427	89.46
0.295121	89.2654
0.296825	89.0696
0.298538	88.8726
0.300262	88.6745
0.301995	88.4753
0.303739	88.2749
0.305492	88.0735
0.307256	87.8709
0.30903	87.6673
0.310814	87.4626
0.312608	87.2569
0.314413	87.0501
0.316228	86.8424
0.318053	86.6336
0.31989	86.4239
0.321736	86.2132
0.323594	86.0015
0.325462	85.789
0.327341	85.5755
0.32923	85.3611
0.331131	85.1459
0.333043	84.9298
0.334965	84.7128
0.336899	84.495
0.338844	84.2765
0.3408	84.0571
0.342768	83.8369
0.344747	83.616
0.346737	83.3943
0.348739	83.172
0.350752	82.9489
0.352777	82.7251
0.354813	82.5006
0.356862	82.2755
0.358922	82.0498
0.360994	81.8234
0.363078	81.5964
0.365174	81.3688
0.367282	81.1407
0.369403	80.912
0.371535	80.6828
0.37368	80.453
0.375837	80.2228
0.378007	79.992
0.380189	79.7608
0.382384	79.5291
0.384592	79.297
0.386812	79.0645
0.389045	78.8316
0.391291	78.5983
0.39355	78.3646
0.395822	78.1305
0.398107	77.8962
0.400405	77.6615
0.402717	77.4265
0.405042	77.1912
0.40738	76.9556
0.409732	76.7198
0.412098	76.4837
0.414477	76.2474
0.416869	76.0109
0.419276	75.7743
0.421697	75.5374
0.424131	75.3004
0.42658	75.0632
0.429042	74.8259
0.431519	74.5885
0.43401	74.351
0.436516	74.1134
0.439036	73.8757
0.44157	73.6379
0.44412	73.4002
0.446684	73.1624
0.449262	72.9245
0.451856	72.6867
0.454465	72.4489
0.457088	72.2112
0.459727	71.9734
0.462381	71.7358
0.46505	71.4982
0.467735	71.2606
0.470435	71.0232
0.473151	70.7859
0.475883	70.5487
0.47863	70.3117
0.481393	70.0748
0.484172	69.838
0.486968	69.6014
0.489779	69.365
0.492606	69.1289
0.49545	68.8929
0.49831	68.6571
0.501187	68.4216
0.504081	68.1863
0.506991	67.9513
0.509918	67.7165
0.512861	67.482
0.515822	67.2478
0.5188	67.014
0.521795	66.7804
0.524807	66.5471
0.527837	66.3142
0.530884	66.0816
0.533949	65.8493
0.537032	65.6174
0.540132	65.3859
0.54325	65.1548
0.546387	64.924
0.549541	64.6937
0.552713	64.4637
0.555904	64.2342
0.559114	64.0051
0.562341	63.7764
0.565588	63.5481
0.568853	63.3203
0.572137	63.093
0.57544	62.8661
0.578762	62.6397
0.582103	62.4138
0.585464	62.1883
0.588844	61.9634
0.592243	61.7389
0.595662	61.515
0.599101	61.2915
0.60256	61.0686
0.606038	60.8462
0.609537	60.6243
