Stopping power dEdx from Ionisation for F19[0.0] Z = 9 in Water, process name: ionIoni
E [MeV]	dEdx [MeV/mm]
0.001	23.191
0.00100577	23.2583
0.00101158	23.3257
0.00101742	23.3933
0.00102329	23.4612
0.0010292	23.5292
0.00103514	23.5974
0.00104112	23.6658
0.00104713	23.7344
0.00105317	23.8032
0.00105925	23.8722
0.00106537	23.9414
0.00107152	24.0108
0.00107771	24.0804
0.00108393	24.1502
0.00109018	24.2202
0.00109648	24.2904
0.00110281	24.3608
0.00110917	24.4314
0.00111558	24.5022
0.00112202	24.5733
0.0011285	24.6445
0.00113501	24.7159
0.00114156	24.7875
0.00114815	24.8594
0.00115478	24.9314
0.00116145	25.0037
0.00116815	25.0761
0.0011749	25.1488
0.00118168	25.2217
0.0011885	25.2948
0.00119536	25.3681
0.00120226	25.4416
0.00120921	25.5153
0.00121619	25.5893
0.00122321	25.6634
0.00123027	25.7378
0.00123737	25.8123
0.00124451	25.8871
0.0012517	25.9621
0.00125893	26.0374
0.00126619	26.1128
0.0012735	26.1885
0.00128086	26.2644
0.00128825	26.3404
0.00129569	26.4168
0.00130317	26.4933
0.00131069	26.5701
0.00131826	26.647
0.00132587	26.7242
0.00133352	26.8017
0.00134122	26.8793
0.00134896	26.9572
0.00135675	27.0353
0.00136458	27.1136
0.00137246	27.1921
0.00138038	27.2709
0.00138835	27.3499
0.00139637	27.4291
0.00140443	27.5086
0.00141254	27.5882
0.00142069	27.6682
0.00142889	27.7483
0.00143714	27.8287
0.00144544	27.9093
0.00145378	27.9901
0.00146218	28.0712
0.00147062	28.1525
0.00147911	28.234
0.00148765	28.3158
0.00149624	28.3978
0.00150487	28.4801
0.00151356	28.5625
0.0015223	28.6453
0.00153109	28.7282
0.00153993	28.8114
0.00154882	28.8949
0.00155776	28.9785
0.00156675	29.0624
0.0015758	29.1466
0.00158489	29.231
0.00159404	29.3157
0.00160325	29.4005
0.0016125	29.4857
0.00162181	29.5711
0.00163117	29.6567
0.00164059	29.7426
0.00165006	29.8287
0.00165959	29.9151
0.00166917	30.0017
0.0016788	30.0885
0.0016885	30.1757
0.00169824	30.263
0.00170805	30.3507
0.00171791	30.4385
0.00172783	30.5267
0.0017378	30.615
0.00174783	30.7037
0.00175792	30.7926
0.00176807	30.8817
0.00177828	30.9711
0.00178855	31.0608
0.00179887	31.1507
0.00180926	31.2409
0.0018197	31.3313
0.00183021	31.422
0.00184077	31.513
0.0018514	31.6042
0.00186209	31.6957
0.00187284	31.7874
0.00188365	31.8795
0.00189452	31.9717
0.00190546	32.0643
0.00191646	32.1571
0.00192752	32.2502
0.00193865	32.3435
0.00194984	32.4372
0.0019611	32.531
0.00197242	32.6252
0.00198381	32.7196
0.00199526	32.8143
0.00200678	32.9093
0.00201837	33.0046
0.00203002	33.1001
0.00204174	33.1959
0.00205353	33.292
0.00206538	33.3883
0.0020773	33.4849
0.0020893	33.5818
0.00210136	33.679
0.00211349	33.7765
0.00212569	33.8743
0.00213796	33.9723
0.0021503	34.0706
0.00216272	34.1692
0.0021752	34.2681
0.00218776	34.3672
0.00220039	34.4667
0.00221309	34.5664
0.00222587	34.6665
0.00223872	34.7668
0.00225165	34.8674
0.00226464	34.9683
0.00227772	35.0694
0.00229087	35.1709
0.00230409	35.2727
0.00231739	35.3748
0.00233077	35.4771
0.00234423	35.5798
0.00235776	35.6827
0.00237137	35.7859
0.00238506	35.8895
0.00239883	35.9933
0.00241268	36.0975
0.00242661	36.2019
0.00244062	36.3066
0.00245471	36.4117
0.00246888	36.517
0.00248313	36.6227
0.00249747	36.7286
0.00251189	36.8349
0.00252639	36.9415
0.00254097	37.0483
0.00255564	37.1555
0.0025704	37.263
0.00258523	37.3708
0.00260016	37.4789
0.00261517	37.5873
0.00263027	37.6961
0.00264545	37.8051
0.00266073	37.9145
0.00267609	38.0241
0.00269153	38.1341
0.00270707	38.2444
0.0027227	38.3551
0.00273842	38.466
0.00275423	38.5773
0.00277013	38.6889
0.00278612	38.8008
0.00280221	38.913
0.00281838	39.0256
0.00283465	39.1384
0.00285102	39.2516
0.00286748	39.3652
0.00288403	39.479
0.00290068	39.5932
0.00291743	39.7077
0.00293427	39.8226
0.00295121	39.9377
0.00296825	40.0533
0.00298538	40.1691
0.00300262	40.2853
0.00301995	40.4018
0.00303739	40.5186
0.00305492	40.6358
0.00307256	40.7533
0.0030903	40.8712
0.00310814	40.9894
0.00312608	41.1079
0.00314413	41.2268
0.00316228	41.346
0.00318053	41.4656
0.0031989	41.5855
0.00321736	41.7058
0.00323594	41.8264
0.00325462	41.9473
0.00327341	42.0686
0.0032923	42.1903
0.00331131	42.3123
0.00333043	42.4346
0.00334965	42.5573
0.00336899	42.6804
0.00338844	42.8038
0.003408	42.9276
0.00342768	43.0517
0.00344747	43.1762
0.00346737	43.301
0.00348739	43.4262
0.00350752	43.5518
0.00352777	43.6777
0.00354813	43.804
0.00356862	43.9306
0.00358922	44.0577
0.00360994	44.185
0.00363078	44.3128
0.00365174	44.4409
0.00367282	44.5694
0.00369403	44.6983
0.00371535	44.8275
0.0037368	44.9571
0.00375837	45.0871
0.00378007	45.2174
0.00380189	45.3481
0.00382384	45.4792
0.00384592	45.6107
0.00386812	45.7426
0.00389045	45.8748
0.00391291	46.0074
0.0039355	46.1404
0.00395822	46.2738
0.00398107	46.4076
0.00400405	46.5418
0.00402717	46.6763
0.00405042	46.8112
0.0040738	46.9465
0.00409732	47.0823
0.00412098	47.2184
0.00414477	47.3549
0.00416869	47.4917
0.00419276	47.629
0.00421697	47.7667
0.00424131	47.9048
0.0042658	48.0432
0.00429042	48.1821
0.00431519	48.3214
0.0043401	48.4611
0.00436516	48.6011
0.00439036	48.7416
0.0044157	48.8825
0.0044412	49.0238
0.00446684	49.1655
0.00449262	49.3076
0.00451856	49.4501
0.00454465	49.593
0.00457088	49.7364
0.00459727	49.8801
0.00462381	50.0243
0.0046505	50.1689
0.00467735	50.3139
0.00470435	50.4593
0.00473151	50.6051
0.00475883	50.7514
0.0047863	50.898
0.00481393	51.0451
0.00484172	51.1927
0.00486968	51.3406
0.00489779	51.489
0.00492606	51.6378
0.0049545	51.787
0.0049831	51.9367
0.00501187	52.0868
0.00504081	52.2373
0.00506991	52.3883
0.00509918	52.5397
0.00512861	52.6915
0.00515822	52.8438
0.005188	52.9965
0.00521795	53.1496
0.00524807	53.3032
0.00527837	53.4572
0.00530884	53.6117
0.00533949	53.7666
0.00537032	53.922
0.00540132	54.0778
0.0054325	54.2341
0.00546387	54.5268
0.00549541	54.684
0.00552713	54.8416
0.00555904	54.9997
0.00559114	55.1582
0.00562341	55.3172
0.00565588	55.4767
0.00568853	55.6366
0.00572137	55.7969
0.0057544	55.9578
0.00578762	56.1191
0.00582103	56.2808
0.00585464	56.443
0.00588844	56.6057
0.00592243	56.7689
0.00595662	56.9325
0.00599101	57.0966
0.0060256	57.2612
0.00606038	57.4262
0.00609537	57.5918
0.00613056	57.7578
0.00616595	57.9242
0.00620155	58.0912
0.00623735	58.2586
0.00627336	58.4266
0.00630957	58.595
0.006346	58.7639
0.00638263	58.9332
0.00641948	59.1031
0.00645654	59.2735
0.00649382	59.4443
0.00653131	59.6157
0.00656901	59.7875
0.00660693	59.9598
0.00664508	60.1326
0.00668344	60.306
0.00672202	60.4798
0.00676083	60.6541
0.00679986	60.829
0.00683912	61.0043
0.0068786	61.1801
0.00691831	61.3565
0.00695825	61.5333
0.00699842	61.7107
0.00703882	61.8886
0.00707946	62.0669
0.00712033	62.2458
0.00716143	62.4253
0.00720278	62.6052
0.00724436	62.7856
0.00728618	62.9666
0.00732825	63.1481
0.00737055	63.3301
0.0074131	63.5127
0.0074559	63.6957
0.00749894	63.8793
0.00754223	64.0635
0.00758578	64.2481
0.00762957	64.4333
0.00767361	64.619
0.00771792	64.8053
0.00776247	64.9921
0.00780728	65.1794
0.00785236	65.3673
0.00789769	65.5557
0.00794328	65.7446
0.00798914	65.9341
0.00803526	66.1242
0.00808165	66.3148
0.00812831	66.5059
0.00817523	66.6976
0.00822243	66.8899
0.0082699	67.0827
0.00831764	67.276
0.00836566	67.4699
0.00841395	67.6644
0.00846253	67.8594
0.00851138	68.055
0.00856052	68.2512
0.00860994	68.4479
0.00865964	68.6452
0.00870964	68.8431
0.00875992	69.0415
0.00881049	69.2405
0.00886135	69.4401
0.00891251	69.6403
0.00896396	69.841
0.00901571	70.0423
0.00906776	70.2442
0.00912011	70.4466
0.00917276	70.6497
0.00922571	70.8533
0.00927897	71.0576
0.00933254	71.2624
0.00938642	71.4678
0.00944061	71.6738
0.00949511	71.8804
0.00954993	72.0876
0.00960506	72.2953
0.00966051	72.5037
0.00971628	72.7127
0.00977237	72.9223
0.00982879	73.1325
0.00988553	73.3433
0.0099426	73.5547
0.01	73.7667
0.0100577	73.9793
0.0101158	74.1926
0.0101742	74.4064
0.0102329	74.6209
0.010292	74.836
0.0103514	75.0517
0.0104112	75.268
0.0104713	75.4849
0.0105317	75.7025
0.0105925	75.9207
0.0106537	76.1396
0.0107152	76.359
0.0107771	76.5791
0.0108393	76.7998
0.0109018	77.0212
0.0109648	77.2432
0.0110281	77.4659
0.0110917	77.6891
0.0111558	77.9131
0.0112202	78.1376
0.011285	78.3629
0.0113501	78.5887
0.0114156	78.8153
0.0114815	79.0424
0.0115478	79.2703
0.0116145	79.4988
0.0116815	79.7279
0.011749	79.9577
0.0118168	80.1882
0.011885	80.4193
0.0119536	80.6511
0.0120226	80.8836
0.0120921	81.1167
0.0121619	81.3505
0.0122321	81.585
0.0123027	81.8202
0.0123737	82.056
0.0124451	82.2925
0.012517	82.5297
0.0125893	82.7676
0.0126619	83.0062
0.012735	83.2454
0.0128086	83.4854
0.0128825	83.726
0.0129569	83.9673
0.0130317	84.2094
0.0131069	84.4521
0.0131826	84.6955
0.0132587	84.9396
0.0133352	85.1845
0.0134122	85.43
0.0134896	85.6762
0.0135675	85.9232
0.0136458	86.1708
0.0137246	86.4192
0.0138038	86.6683
0.0138835	86.9181
0.0139637	87.1687
0.0140443	87.4199
0.0141254	87.6719
0.0142069	87.9246
0.0142889	88.178
0.0143714	88.4322
0.0144544	88.6871
0.0145378	88.9427
0.0146218	89.1991
0.0147062	89.4562
0.0147911	89.714
0.0148765	89.9726
0.0149624	90.2319
0.0150487	90.492
0.0151356	90.7529
0.015223	91.0144
0.0153109	91.2768
0.0153993	91.5399
0.0154882	91.8037
0.0155776	92.0683
0.0156675	92.3337
0.015758	92.5999
0.0158489	92.8668
0.0159404	93.1344
0.0160325	93.4029
0.016125	93.6721
0.0162181	93.9421
0.0163117	94.2129
0.0164059	94.4844
0.0165006	94.7568
0.0165959	95.0299
0.0166917	95.3038
0.016788	95.5785
0.016885	95.854
0.0169824	96.1303
0.0170805	96.4074
0.0171791	96.6853
0.0172783	96.964
0.017378	97.2434
0.0174783	97.5237
0.0175792	97.8048
0.0176807	98.0867
0.0177828	98.3695
0.0178855	98.653
0.0179887	98.9374
0.0180926	99.2225
0.018197	99.5085
0.0183021	99.7954
0.0184077	100.083
0.018514	100.371
0.0186209	100.661
0.0187284	100.951
0.0188365	101.242
0.0189452	101.534
0.0190546	101.826
0.0191646	102.12
0.0192752	102.414
0.0193865	102.709
0.0194984	103.005
0.019611	103.302
0.0197242	103.6
0.0198381	103.899
0.0199526	104.198
0.0200678	104.499
0.0201837	104.8
0.0203002	105.102
0.0204174	105.405
0.0205353	105.709
0.0206538	106.013
0.020773	106.319
0.020893	106.625
0.0210136	106.933
0.0211349	107.241
0.0212569	107.55
0.0213796	107.86
0.021503	108.171
0.0216272	108.483
0.021752	108.795
0.0218776	109.109
0.0220039	109.423
0.0221309	109.739
0.0222587	110.055
0.0223872	110.372
0.0225165	110.69
0.0226464	111.01
0.0227772	111.33
0.0229087	111.65
0.0230409	111.972
0.0231739	112.295
0.0233077	112.619
0.0234423	112.943
0.0235776	113.269
0.0237137	113.595
0.0238506	113.923
0.0239883	114.251
0.0241268	114.58
0.0242661	114.911
0.0244062	115.242
0.0245471	115.574
0.0246888	115.907
0.0248313	116.241
0.0249747	116.576
0.0251189	116.912
0.0252639	117.249
0.0254097	117.587
0.0255564	117.926
0.025704	118.266
0.0258523	118.607
0.0260016	118.949
0.0261517	119.292
0.0263027	119.636
0.0264545	119.98
0.0266073	120.326
0.0267609	120.673
0.0269153	121.021
0.0270707	121.37
0.027227	121.72
0.0273842	122.07
0.0275423	122.422
0.0277013	122.775
0.0278612	123.129
0.0280221	123.484
0.0281838	123.84
0.0283465	124.197
0.0285102	124.555
0.0286748	124.914
0.0288403	125.274
0.0290068	125.635
0.0291743	125.997
0.0293427	126.36
0.0295121	126.724
0.0296825	127.09
0.0298538	127.456
0.0300262	127.823
0.0301995	128.192
0.0303739	128.561
0.0305492	128.932
0.0307256	129.304
0.030903	129.676
0.0310814	130.05
0.0312608	130.425
0.0314413	130.801
0.0316228	131.178
0.0318053	131.556
0.031989	131.935
0.0321736	132.315
0.0323594	132.697
0.0325462	133.079
0.0327341	133.463
0.032923	133.848
0.0331131	134.233
0.0333043	134.62
0.0334965	135.008
0.0336899	135.397
0.0338844	135.788
0.03408	136.179
0.0342768	136.572
0.0344747	136.965
0.0346737	137.36
0.0348739	137.756
0.0350752	138.153
0.0352777	138.551
0.0354813	138.951
0.0356862	139.351
0.0358922	139.753
0.0360994	140.156
0.0363078	140.56
0.0365174	140.965
0.0367282	141.371
0.0369403	141.778
0.0371535	142.187
0.037368	142.597
0.0375837	143.008
0.0378007	143.42
0.0380189	143.834
0.0382384	144.248
0.0384592	144.664
0.0386812	145.081
0.0389045	145.499
0.0391291	145.918
0.039355	146.339
0.0395822	146.761
0.0398107	147.184
0.0400405	147.608
0.0402717	148.034
0.0405042	148.46
0.040738	148.888
0.0409732	149.317
0.0412098	149.748
0.0414477	150.179
0.0416869	150.612
0.0419276	151.046
0.0421697	151.482
0.0424131	151.918
0.042658	152.356
0.0429042	152.795
0.0431519	153.236
0.043401	153.678
0.0436516	154.12
0.0439036	154.565
0.044157	155.01
0.044412	155.457
0.0446684	155.905
0.0449262	156.354
0.0451856	156.805
0.0454465	157.257
0.0457088	157.71
0.0459727	158.165
0.0462381	158.621
0.046505	159.078
0.0467735	159.537
0.0470435	159.996
0.0473151	160.458
0.0475883	160.92
0.047863	161.384
0.0481393	161.849
0.0484172	162.316
0.0486968	162.783
0.0489779	163.253
0.0492606	163.723
0.049545	164.195
0.049831	164.668
0.0501187	165.143
0.0504081	165.619
0.0506991	166.096
0.0509918	166.575
0.0512861	167.055
0.0515822	167.537
0.05188	168.02
0.0521795	168.504
0.0524807	168.99
0.0527837	169.477
0.0530884	169.965
0.0533949	170.455
0.0537032	170.947
0.0540132	171.439
0.054325	171.933
0.0546387	172.429
0.0549541	172.926
0.0552713	173.424
0.0555904	173.924
0.0559114	174.426
0.0562341	174.928
0.0565588	175.433
0.0568853	175.938
0.0572137	176.445
0.057544	176.954
0.0578762	177.464
0.0582103	177.976
0.0585464	178.489
0.0588844	179.003
0.0592243	179.519
0.0595662	180.036
0.0599101	180.555
0.060256	181.076
0.0606038	181.598
0.0609537	182.121
0.0613056	182.646
0.0616595	183.173
0.0620155	183.7
0.0623735	184.23
0.0627336	184.761
0.0630957	185.294
0.06346	185.828
0.0638263	186.363
0.0641948	186.9
0.0645654	187.439
0.0649382	187.979
0.0653131	188.521
0.0656901	189.065
0.0660693	189.61
0.0664508	190.156
0.0668344	190.704
0.0672202	191.254
0.0676083	191.805
0.0679986	192.358
0.0683912	192.912
0.068786	193.469
0.0691831	194.026
0.0695825	194.585
0.0699842	195.146
0.0703882	195.709
0.0707946	196.273
0.0712033	196.839
0.0716143	197.406
0.0720278	197.975
0.0724436	198.546
0.0728618	199.118
0.0732825	199.692
0.0737055	200.267
0.074131	200.845
0.074559	201.424
0.0749894	202.004
0.0754223	202.586
0.0758578	203.17
0.0762957	203.756
0.0767361	204.343
0.0771792	204.932
0.0776247	205.523
0.0780728	206.115
0.0785236	206.709
0.0789769	207.305
0.0794328	207.903
0.0798914	208.502
0.0803526	209.103
0.0808165	209.706
0.0812831	210.31
0.0817523	210.916
0.0822243	211.524
0.082699	212.134
0.0831764	212.745
0.0836566	213.359
0.0841395	213.974
0.0846253	214.59
0.0851138	215.209
0.0856052	215.829
0.0860994	216.451
0.0865964	217.075
0.0870964	217.701
0.0875992	218.328
0.0881049	218.958
0.0886135	219.589
0.0891251	220.222
0.0896396	220.857
0.0901571	221.493
0.0906776	222.132
0.0912011	222.772
0.0917276	223.414
0.0922571	224.058
0.0927897	224.704
0.0933254	225.351
0.0938642	226.001
0.0944061	226.652
0.0949511	227.306
0.0954993	227.961
0.0960506	228.618
0.0966051	229.277
0.0971628	229.938
0.0977237	230.601
0.0982879	231.265
0.0988553	231.932
0.099426	232.6
0.1	233.271
0.100577	233.943
0.101158	234.617
0.101742	235.294
0.102329	235.972
0.10292	236.652
0.103514	237.334
0.104112	238.018
0.104713	238.704
0.105317	239.392
0.105925	240.082
0.106537	240.774
0.107152	241.468
0.107771	242.164
0.108393	242.862
0.109018	243.562
0.109648	244.264
0.110281	244.969
0.110917	245.675
0.111558	246.383
0.112202	247.093
0.11285	247.805
0.113501	248.519
0.114156	249.236
0.114815	249.954
0.115478	250.675
0.116145	251.397
0.116815	252.122
0.11749	252.848
0.118168	253.577
0.11885	254.308
0.119536	255.041
0.120226	255.776
0.120921	256.514
0.121619	257.253
0.122321	257.994
0.123027	258.738
0.123737	259.484
0.124451	260.232
0.12517	260.982
0.125893	261.734
0.126619	262.489
0.12735	263.245
0.128086	264.004
0.128825	264.765
0.129569	265.528
0.130317	266.293
0.131069	267.061
0.131826	267.831
0.132587	268.603
0.133352	269.377
0.134122	270.153
0.134896	270.932
0.135675	271.713
0.136458	272.496
0.137246	273.282
0.138038	274.069
0.138835	274.859
0.139637	275.651
0.140443	276.446
0.141254	277.243
0.142069	278.042
0.142889	278.843
0.143714	279.647
0.144544	280.453
0.145378	281.262
0.146218	282.072
0.147062	282.885
0.147911	283.701
0.148765	284.518
0.149624	285.338
0.150487	286.161
0.151356	286.986
0.15223	287.813
0.153109	288.643
0.153993	289.475
0.154882	290.309
0.155776	291.146
0.156675	291.985
0.15758	292.826
0.158489	293.671
0.159404	294.517
0.160325	295.366
0.16125	296.217
0.162181	297.071
0.163117	297.927
0.164059	298.786
0.165006	299.647
0.165959	300.511
0.166917	301.377
0.16788	302.246
0.16885	303.117
0.169824	303.991
0.170805	304.867
0.171791	305.746
0.172783	306.627
0.17378	307.511
0.174783	308.397
0.175792	309.286
0.176807	310.178
0.177828	311.072
0.178855	311.968
0.179887	312.867
0.180926	313.769
0.18197	314.674
0.183021	315.581
0.184077	316.49
0.18514	317.402
0.186209	318.317
0.187284	319.235
0.188365	320.155
0.189452	321.078
0.190546	322.003
0.191646	322.931
0.192752	323.862
0.193865	324.796
0.194984	325.732
0.19611	326.671
0.197242	327.612
0.198381	328.557
0.199526	329.504
0.200678	330.453
0.201837	331.406
0.203002	332.361
0.204174	333.319
0.205353	334.28
0.206538	335.243
0.20773	336.21
0.20893	337.179
0.210136	338.151
0.211349	339.125
0.212569	340.103
0.213796	341.083
0.21503	342.066
0.216272	343.052
0.21752	344.041
0.218776	345.033
0.220039	346.027
0.221309	347.025
0.222587	348.025
0.223872	349.028
0.225165	350.034
0.226464	351.043
0.227772	352.055
0.229087	353.07
0.230409	354.087
0.231739	355.108
0.233077	356.131
0.234423	357.158
0.235776	358.187
0.237137	359.22
0.238506	360.255
0.239883	361.294
0.241268	362.335
0.242661	363.379
0.244062	364.427
0.245471	365.477
0.246888	366.531
0.248313	367.587
0.249747	368.647
0.251189	369.709
0.252639	370.775
0.254097	371.844
0.255564	372.915
0.25704	373.99
0.258523	375.068
0.260016	376.149
0.261517	377.234
0.263027	378.321
0.264545	379.411
0.266073	380.505
0.267609	381.602
0.269153	382.702
0.270707	383.805
0.27227	384.911
0.273842	386.02
0.275423	387.133
0.277013	388.249
0.278612	389.368
0.280221	390.49
0.281838	391.616
0.283465	392.745
0.285102	393.877
0.286748	395.012
0.288403	396.151
0.290068	397.292
0.291743	398.438
0.293427	399.586
0.295121	400.738
0.296825	401.893
0.298538	403.051
0.300262	404.213
0.301995	405.378
0.303739	406.547
0.305492	407.718
0.307256	408.894
0.30903	410.072
0.310814	411.254
0.312608	412.44
0.314413	413.628
0.316228	414.821
0.318053	416.016
0.31989	417.215
0.321736	418.418
0.323594	419.624
0.325462	420.834
0.327341	422.047
0.32923	423.263
0.331131	424.483
0.333043	425.707
0.334965	426.934
0.336899	428.164
0.338844	429.398
0.3408	430.636
0.342768	431.877
0.344747	433.122
0.346737	434.371
0.348739	435.623
0.350752	436.878
0.352777	438.137
0.354813	439.4
0.356862	440.667
0.358922	441.937
0.360994	443.211
0.363078	444.488
0.365174	445.769
0.367282	447.054
0.369403	448.343
0.371535	449.635
0.37368	450.931
0.375837	452.231
0.378007	453.534
0.380189	454.842
0.382384	456.153
0.384592	457.468
0.386812	458.786
0.389045	460.109
0.391291	461.435
0.39355	462.765
0.395822	464.099
0.398107	465.436
0.400405	466.778
0.402717	468.123
0.405042	469.473
0.40738	470.826
0.409732	472.183
0.412098	473.544
0.414477	474.909
0.416869	476.278
0.419276	477.651
0.421697	479.027
0.424131	480.408
0.42658	481.793
0.429042	483.182
0.431519	484.574
0.43401	485.971
0.436516	487.372
0.439036	488.777
0.44157	490.185
0.44412	491.598
0.446684	493.015
0.449262	494.436
0.451856	495.861
0.454465	497.291
0.457088	498.724
0.459727	500.162
0.462381	501.603
0.46505	503.049
0.467735	504.499
0.470435	505.953
0.473151	507.412
0.475883	508.937
0.47863	510.603
0.481393	512.277
0.484172	513.961
0.486968	515.653
0.489779	517.355
0.492606	519.066
0.49545	520.786
0.49831	522.516
0.501187	524.254
0.504081	526.002
0.506991	527.759
0.509918	529.525
0.512861	531.301
0.515822	533.085
0.5188	534.879
0.521795	536.683
0.524807	538.496
0.527837	540.318
0.530884	542.15
0.533949	543.991
0.537032	545.841
0.540132	547.701
0.54325	549.57
0.546387	551.449
0.549541	553.337
0.552713	555.235
0.555904	557.142
0.559114	559.059
0.562341	560.985
0.565588	562.921
0.568853	564.866
0.572137	566.763
0.57544	568.637
0.578762	570.521
0.582103	572.414
0.585464	574.315
0.588844	576.226
0.592243	578.145
0.595662	580.074
0.599101	582.011
0.60256	583.958
0.606038	585.913
