Stopping power dEdx from Ionisation for F19[0.0] Z = 9 in G4_Si, process name: ionIoni
E [MeV]	dEdx [MeV/mm]
0.001	31.8219
0.00100577	31.9144
0.00101158	32.0071
0.00101742	32.1001
0.00102329	32.1934
0.0010292	32.2869
0.00103514	32.3807
0.00104112	32.4748
0.00104713	32.5691
0.00105317	32.6637
0.00105925	32.7586
0.00106537	32.8538
0.00107152	32.9492
0.00107771	33.0449
0.00108393	33.1409
0.00109018	33.2372
0.00109648	33.3337
0.00110281	33.4306
0.00110917	33.5277
0.00111558	33.625
0.00112202	33.7227
0.0011285	33.8206
0.00113501	33.9189
0.00114156	34.0174
0.00114815	34.1162
0.00115478	34.2153
0.00116145	34.3146
0.00116815	34.4143
0.0011749	34.5142
0.00118168	34.6144
0.0011885	34.7149
0.00119536	34.8157
0.00120226	34.9168
0.00120921	35.0182
0.00121619	35.1199
0.00122321	35.2219
0.00123027	35.3241
0.00123737	35.4267
0.00124451	35.5295
0.0012517	35.6327
0.00125893	35.7361
0.00126619	35.8399
0.0012735	35.9439
0.00128086	36.0483
0.00128825	36.1529
0.00129569	36.2579
0.00130317	36.3631
0.00131069	36.4687
0.00131826	36.5745
0.00132587	36.6807
0.00133352	36.7872
0.00134122	36.8939
0.00134896	37.001
0.00135675	37.1084
0.00136458	37.2161
0.00137246	37.3241
0.00138038	37.4325
0.00138835	37.5411
0.00139637	37.65
0.00140443	37.7593
0.00141254	37.8689
0.00142069	37.9788
0.00142889	38.089
0.00143714	38.1995
0.00144544	38.3104
0.00145378	38.4215
0.00146218	38.533
0.00147062	38.6448
0.00147911	38.757
0.00148765	38.8694
0.00149624	38.9822
0.00150487	39.0953
0.00151356	39.2087
0.0015223	39.3225
0.00153109	39.4366
0.00153993	39.551
0.00154882	39.6657
0.00155776	39.7808
0.00156675	39.8962
0.0015758	40.0119
0.00158489	40.128
0.00159404	40.2444
0.00160325	40.3612
0.0016125	40.4782
0.00162181	40.5956
0.00163117	40.7134
0.00164059	40.8315
0.00165006	40.9499
0.00165959	41.0687
0.00166917	41.1878
0.0016788	41.3073
0.0016885	41.4271
0.00169824	41.5472
0.00170805	41.6677
0.00171791	41.7886
0.00172783	41.9098
0.0017378	42.0313
0.00174783	42.1532
0.00175792	42.2754
0.00176807	42.398
0.00177828	42.521
0.00178855	42.6443
0.00179887	42.7679
0.00180926	42.892
0.0018197	43.0163
0.00183021	43.1411
0.00184077	43.2662
0.0018514	43.3916
0.00186209	43.5174
0.00187284	43.6436
0.00188365	43.7701
0.00189452	43.897
0.00190546	44.0243
0.00191646	44.1519
0.00192752	44.2799
0.00193865	44.4083
0.00194984	44.5371
0.0019611	44.6662
0.00197242	44.7957
0.00198381	44.9255
0.00199526	45.0558
0.00200678	45.1864
0.00201837	45.3173
0.00203002	45.4487
0.00204174	45.5805
0.00205353	45.7126
0.00206538	45.8451
0.0020773	45.978
0.0020893	46.1112
0.00210136	46.2449
0.00211349	46.3789
0.00212569	46.5133
0.00213796	46.6481
0.0021503	46.7833
0.00216272	46.9189
0.0021752	47.0549
0.00218776	47.1913
0.00220039	47.3281
0.00221309	47.4652
0.00222587	47.6028
0.00223872	47.7407
0.00225165	47.8791
0.00226464	48.0178
0.00227772	48.157
0.00229087	48.2965
0.00230409	48.4365
0.00231739	48.5768
0.00233077	48.7176
0.00234423	48.8587
0.00235776	49.0003
0.00237137	49.1423
0.00238506	49.2847
0.00239883	49.4275
0.00241268	49.5707
0.00242661	49.7143
0.00244062	49.8583
0.00245471	50.0028
0.00246888	50.1477
0.00248313	50.2929
0.00249747	50.4387
0.00251189	50.5848
0.00252639	50.7313
0.00254097	50.8783
0.00255564	51.0257
0.0025704	51.1735
0.00258523	51.3217
0.00260016	51.4704
0.00261517	51.6195
0.00263027	51.769
0.00264545	51.919
0.00266073	52.0694
0.00267609	52.2202
0.00269153	52.3715
0.00270707	52.5232
0.0027227	52.6753
0.00273842	52.8279
0.00275423	52.9809
0.00277013	53.1343
0.00278612	53.2882
0.00280221	53.4426
0.00281838	53.5974
0.00283465	53.7526
0.00285102	53.9083
0.00286748	54.0644
0.00288403	54.221
0.00290068	54.378
0.00291743	54.5355
0.00293427	54.6934
0.00295121	54.8518
0.00296825	55.0106
0.00298538	55.1699
0.00300262	55.3297
0.00301995	55.4899
0.00303739	55.6506
0.00305492	55.8118
0.00307256	55.9734
0.0030903	56.1354
0.00310814	56.298
0.00312608	56.461
0.00314413	56.6245
0.00316228	56.7884
0.00318053	56.9529
0.0031989	57.1178
0.00321736	57.2831
0.00323594	57.449
0.00325462	57.6153
0.00327341	57.7821
0.0032923	57.9494
0.00331131	58.1172
0.00333043	58.2855
0.00334965	58.4542
0.00336899	58.6234
0.00338844	58.7932
0.003408	58.9634
0.00342768	59.1341
0.00344747	59.3052
0.00346737	59.4769
0.00348739	59.6491
0.00350752	59.8218
0.00352777	59.9949
0.00354813	60.1686
0.00356862	60.3428
0.00358922	60.5175
0.00360994	60.6926
0.00363078	60.8683
0.00365174	61.0445
0.00367282	61.2212
0.00369403	61.3984
0.00371535	61.5761
0.0037368	61.7543
0.00375837	61.9331
0.00378007	62.1123
0.00380189	62.2921
0.00382384	62.4724
0.00384592	62.6532
0.00386812	62.8345
0.00389045	63.0164
0.00391291	63.1988
0.0039355	63.3817
0.00395822	63.5651
0.00398107	63.7491
0.00400405	63.9336
0.00402717	64.1186
0.00405042	64.3041
0.0040738	64.4902
0.00409732	64.6769
0.00412098	64.864
0.00414477	65.0517
0.00416869	65.24
0.00419276	65.4288
0.00421697	65.6181
0.00424131	65.808
0.0042658	65.9984
0.00429042	66.1894
0.00431519	66.3809
0.0043401	66.573
0.00436516	66.7656
0.00439036	66.9588
0.0044157	67.1525
0.0044412	67.3468
0.00446684	67.5417
0.00449262	67.7371
0.00451856	67.9331
0.00454465	68.1296
0.00457088	68.3268
0.00459727	68.5244
0.00462381	68.7227
0.0046505	68.9215
0.00467735	69.1209
0.00470435	69.3209
0.00473151	69.5215
0.00475883	69.7226
0.0047863	69.9243
0.00481393	70.1266
0.00484172	70.3295
0.00486968	70.5329
0.00489779	70.737
0.00492606	70.9416
0.0049545	71.1468
0.0049831	71.3526
0.00501187	71.559
0.00504081	71.766
0.00506991	71.9736
0.00509918	72.1818
0.00512861	72.3906
0.00515822	72.6
0.005188	72.81
0.00521795	73.0206
0.00524807	73.2318
0.00527837	73.4437
0.00530884	73.6561
0.00533949	73.8691
0.00537032	74.0828
0.00540132	74.2971
0.0054325	74.512
0.00546387	74.7275
0.00549541	74.9436
0.00552713	75.1604
0.00555904	75.3778
0.00559114	75.5958
0.00562341	75.8144
0.00565588	76.0337
0.00568853	76.2536
0.00572137	76.4741
0.0057544	76.6953
0.00578762	76.9171
0.00582103	77.1395
0.00585464	77.3626
0.00588844	77.5863
0.00592243	77.8107
0.00595662	78.0357
0.00599101	78.2614
0.0060256	78.4877
0.00606038	78.7147
0.00609537	78.9423
0.00613056	79.1706
0.00616595	79.3996
0.00620155	79.6292
0.00623735	79.8594
0.00627336	80.0904
0.00630957	80.3219
0.006346	80.5542
0.00638263	80.7871
0.00641948	81.0207
0.00645654	81.255
0.00649382	81.49
0.00653131	81.7256
0.00656901	81.9619
0.00660693	82.1989
0.00664508	82.4365
0.00668344	82.6749
0.00672202	82.9139
0.00676083	83.1537
0.00679986	83.3941
0.00683912	83.6352
0.0068786	83.877
0.00691831	84.1195
0.00695825	84.3627
0.00699842	84.6066
0.00703882	84.8512
0.00707946	85.0966
0.00712033	85.3426
0.00716143	85.5893
0.00720278	85.8368
0.00724436	86.0849
0.00728618	86.3338
0.00732825	86.5834
0.00737055	86.8337
0.0074131	87.0847
0.0074559	87.3365
0.00749894	87.5889
0.00754223	87.8421
0.00758578	88.0961
0.00762957	88.3507
0.00767361	88.6061
0.00771792	88.8623
0.00776247	89.1192
0.00780728	89.3768
0.00785236	89.6351
0.00789769	89.8942
0.00794328	90.1541
0.00798914	90.4147
0.00803526	90.676
0.00808165	90.9381
0.00812831	91.201
0.00817523	91.4646
0.00822243	91.729
0.0082699	91.9941
0.00831764	92.26
0.00836566	92.5267
0.00841395	92.7942
0.00846253	93.0624
0.00851138	93.3313
0.00856052	93.6011
0.00860994	93.8716
0.00865964	94.143
0.00870964	94.415
0.00875992	94.6879
0.00881049	94.9616
0.00886135	95.2361
0.00891251	95.5113
0.00896396	95.7873
0.00901571	96.0642
0.00906776	96.3418
0.00912011	96.6203
0.00917276	96.8995
0.00922571	97.1795
0.00927897	97.4604
0.00933254	97.742
0.00938642	98.0245
0.00944061	98.3078
0.00949511	98.5919
0.00954993	98.8768
0.00960506	99.1626
0.00966051	99.4491
0.00971628	99.7365
0.00977237	100.025
0.00982879	100.314
0.00988553	100.604
0.0099426	100.894
0.01	101.186
0.0100577	101.478
0.0101158	101.772
0.0101742	102.066
0.0102329	102.361
0.010292	102.914
0.0103514	103.21
0.0104112	103.508
0.0104713	103.806
0.0105317	104.105
0.0105925	104.405
0.0106537	104.706
0.0107152	105.008
0.0107771	105.311
0.0108393	105.614
0.0109018	105.919
0.0109648	106.224
0.0110281	106.53
0.0110917	106.837
0.0111558	107.145
0.0112202	107.454
0.011285	107.764
0.0113501	108.074
0.0114156	108.386
0.0114815	108.698
0.0115478	109.012
0.0116145	109.326
0.0116815	109.641
0.011749	109.957
0.0118168	110.274
0.011885	110.592
0.0119536	110.911
0.0120226	111.23
0.0120921	111.551
0.0121619	111.872
0.0122321	112.195
0.0123027	112.518
0.0123737	112.843
0.0124451	113.168
0.012517	113.494
0.0125893	113.821
0.0126619	114.149
0.012735	114.478
0.0128086	114.808
0.0128825	115.139
0.0129569	115.471
0.0130317	115.804
0.0131069	116.138
0.0131826	116.472
0.0132587	116.808
0.0133352	117.145
0.0134122	117.482
0.0134896	117.821
0.0135675	118.161
0.0136458	118.501
0.0137246	118.843
0.0138038	119.185
0.0138835	119.529
0.0139637	119.873
0.0140443	120.219
0.0141254	120.565
0.0142069	120.913
0.0142889	121.262
0.0143714	121.611
0.0144544	121.962
0.0145378	122.313
0.0146218	122.666
0.0147062	123.019
0.0147911	123.374
0.0148765	123.729
0.0149624	124.086
0.0150487	124.444
0.0151356	124.802
0.015223	125.162
0.0153109	125.523
0.0153993	125.885
0.0154882	126.248
0.0155776	126.611
0.0156675	126.976
0.015758	127.342
0.0158489	127.709
0.0159404	128.078
0.0160325	128.447
0.016125	128.817
0.0162181	129.188
0.0163117	129.561
0.0164059	129.934
0.0165006	130.309
0.0165959	130.684
0.0166917	131.061
0.016788	131.439
0.016885	131.817
0.0169824	132.197
0.0170805	132.578
0.0171791	132.961
0.0172783	133.344
0.017378	133.728
0.0174783	134.114
0.0175792	134.5
0.0176807	134.888
0.0177828	135.277
0.0178855	135.667
0.0179887	136.058
0.0180926	136.45
0.018197	136.843
0.0183021	137.238
0.0184077	137.633
0.018514	138.03
0.0186209	138.428
0.0187284	138.827
0.0188365	139.227
0.0189452	139.628
0.0190546	140.031
0.0191646	140.434
0.0192752	140.839
0.0193865	141.245
0.0194984	141.652
0.019611	142.06
0.0197242	142.47
0.0198381	142.881
0.0199526	143.292
0.0200678	143.705
0.0201837	144.12
0.0203002	144.535
0.0204174	144.952
0.0205353	145.369
0.0206538	145.788
0.020773	146.209
0.020893	146.63
0.0210136	147.053
0.0211349	147.477
0.0212569	147.902
0.0213796	148.328
0.021503	148.755
0.0216272	149.184
0.021752	149.614
0.0218776	150.046
0.0220039	150.478
0.0221309	150.912
0.0222587	151.347
0.0223872	151.783
0.0225165	152.22
0.0226464	152.659
0.0227772	153.099
0.0229087	153.541
0.0230409	153.983
0.0231739	154.427
0.0233077	154.872
0.0234423	155.318
0.0235776	155.766
0.0237137	156.215
0.0238506	156.665
0.0239883	157.117
0.0241268	157.57
0.0242661	158.024
0.0244062	158.479
0.0245471	158.936
0.0246888	159.394
0.0248313	159.854
0.0249747	160.315
0.0251189	160.777
0.0252639	161.24
0.0254097	161.705
0.0255564	162.171
0.025704	162.638
0.0258523	163.107
0.0260016	163.577
0.0261517	164.049
0.0263027	164.522
0.0264545	164.996
0.0266073	165.471
0.0267609	165.948
0.0269153	166.427
0.0270707	166.906
0.027227	167.387
0.0273842	167.87
0.0275423	168.354
0.0277013	168.839
0.0278612	169.326
0.0280221	169.814
0.0281838	170.303
0.0283465	170.794
0.0285102	171.286
0.0286748	171.78
0.0288403	172.275
0.0290068	172.772
0.0291743	173.27
0.0293427	173.769
0.0295121	174.27
0.0296825	174.772
0.0298538	175.276
0.0300262	175.781
0.0301995	176.288
0.0303739	176.796
0.0305492	177.306
0.0307256	177.817
0.030903	178.329
0.0310814	178.843
0.0312608	179.359
0.0314413	179.876
0.0316228	180.394
0.0318053	180.914
0.031989	181.436
0.0321736	181.959
0.0323594	182.483
0.0325462	183.009
0.0327341	183.537
0.032923	184.066
0.0331131	184.596
0.0333043	185.128
0.0334965	185.662
0.0336899	186.197
0.0338844	186.734
0.03408	187.272
0.0342768	187.812
0.0344747	188.353
0.0346737	188.896
0.0348739	189.441
0.0350752	189.987
0.0352777	190.534
0.0354813	191.083
0.0356862	191.634
0.0358922	192.187
0.0360994	192.741
0.0363078	193.296
0.0365174	193.853
0.0367282	194.412
0.0369403	194.972
0.0371535	195.534
0.037368	196.098
0.0375837	196.663
0.0378007	197.23
0.0380189	197.799
0.0382384	198.369
0.0384592	198.94
0.0386812	199.514
0.0389045	200.089
0.0391291	200.666
0.039355	201.244
0.0395822	201.824
0.0398107	202.406
0.0400405	202.989
0.0402717	203.574
0.0405042	204.161
0.040738	204.75
0.0409732	205.34
0.0412098	205.932
0.0414477	206.525
0.0416869	207.12
0.0419276	207.717
0.0421697	208.316
0.0424131	208.917
0.042658	209.519
0.0429042	210.123
0.0431519	210.728
0.043401	211.336
0.0436516	211.945
0.0439036	212.556
0.044157	213.168
0.044412	213.783
0.0446684	214.399
0.0449262	215.017
0.0451856	215.637
0.0454465	216.258
0.0457088	216.882
0.0459727	217.507
0.0462381	218.134
0.046505	218.763
0.0467735	219.393
0.0470435	220.025
0.0473151	220.66
0.0475883	221.296
0.047863	221.934
0.0481393	222.573
0.0484172	223.215
0.0486968	223.858
0.0489779	224.503
0.0492606	225.151
0.049545	225.8
0.049831	226.45
0.0501187	227.103
0.0504081	227.758
0.0506991	228.414
0.0509918	229.073
0.0512861	229.733
0.0515822	230.395
0.05188	231.059
0.0521795	231.725
0.0524807	232.393
0.0527837	233.063
0.0530884	233.735
0.0533949	234.408
0.0537032	235.084
0.0540132	235.762
0.054325	236.441
0.0546387	237.123
0.0549541	237.806
0.0552713	238.492
0.0555904	239.179
0.0559114	239.868
0.0562341	240.56
0.0565588	241.253
0.0568853	241.949
0.0572137	242.646
0.057544	243.345
0.0578762	244.047
0.0582103	244.75
0.0585464	245.456
0.0588844	246.163
0.0592243	246.873
0.0595662	247.584
0.0599101	248.298
0.060256	249.014
0.0606038	249.731
0.0609537	250.451
0.0613056	251.173
0.0616595	251.897
0.0620155	252.623
0.0623735	253.351
0.0627336	254.081
0.0630957	254.814
0.06346	255.548
0.0638263	256.285
0.0641948	257.024
0.0645654	257.764
0.0649382	258.507
0.0653131	259.253
0.0656901	260
0.0660693	260.749
0.0664508	261.501
0.0668344	262.255
0.0672202	263.01
0.0676083	263.769
0.0679986	264.529
0.0683912	265.291
0.068786	266.056
0.0691831	266.823
0.0695825	267.592
0.0699842	268.363
0.0703882	269.137
0.0707946	269.913
0.0712033	270.69
0.0716143	271.471
0.0720278	272.253
0.0724436	273.038
0.0728618	273.825
0.0732825	274.614
0.0737055	275.406
0.074131	276.2
0.074559	276.996
0.0749894	277.794
0.0754223	278.595
0.0758578	279.398
0.0762957	280.203
0.0767361	281.011
0.0771792	281.821
0.0776247	282.633
0.0780728	283.448
0.0785236	284.265
0.0789769	285.084
0.0794328	285.906
0.0798914	286.73
0.0803526	287.556
0.0808165	288.385
0.0812831	289.216
0.0817523	290.05
0.0822243	290.886
0.082699	291.725
0.0831764	292.565
0.0836566	293.409
0.0841395	294.254
0.0846253	295.103
0.0851138	295.953
0.0856052	296.806
0.0860994	297.662
0.0865964	298.52
0.0870964	299.38
0.0875992	300.243
0.0881049	301.108
0.0886135	301.976
0.0891251	302.847
0.0896396	303.72
0.0901571	304.595
0.0906776	305.473
0.0912011	306.354
0.0917276	307.237
0.0922571	308.122
0.0927897	309.01
0.0933254	309.901
0.0938642	310.794
0.0944061	311.69
0.0949511	312.589
0.0954993	313.49
0.0960506	314.393
0.0966051	315.299
0.0971628	316.208
0.0977237	317.12
0.0982879	318.034
0.0988553	318.95
0.099426	319.87
0.1	320.792
0.100577	321.716
0.101158	322.644
0.101742	323.574
0.102329	324.506
0.10292	325.442
0.103514	326.38
0.104112	327.32
0.104713	328.264
0.105317	329.21
0.105925	330.159
0.106537	331.111
0.107152	332.065
0.107771	333.022
0.108393	333.982
0.109018	334.945
0.109648	335.91
0.110281	336.878
0.110917	337.849
0.111558	338.823
0.112202	339.8
0.11285	340.779
0.113501	341.761
0.114156	342.746
0.114815	343.734
0.115478	344.725
0.116145	345.719
0.116815	346.715
0.11749	347.715
0.118168	348.717
0.11885	349.722
0.119536	350.73
0.120226	351.741
0.120921	352.755
0.121619	353.772
0.122321	354.791
0.123027	355.814
0.123737	356.84
0.124451	357.868
0.12517	358.9
0.125893	359.934
0.126619	360.972
0.12735	362.012
0.128086	363.055
0.128825	364.102
0.129569	365.151
0.130317	366.204
0.131069	367.259
0.131826	368.318
0.132587	369.38
0.133352	370.444
0.134122	371.512
0.134896	372.583
0.135675	373.657
0.136458	374.734
0.137246	375.814
0.138038	376.897
0.138835	377.984
0.139637	379.073
0.140443	380.166
0.141254	381.262
0.142069	382.36
0.142889	383.463
0.143714	384.568
0.144544	385.676
0.145378	386.788
0.146218	387.903
0.147062	389.021
0.147911	390.142
0.148765	391.267
0.149624	392.395
0.150487	393.526
0.151356	394.66
0.15223	395.797
0.153109	396.938
0.153993	398.082
0.154882	399.23
0.155776	400.381
0.156675	401.535
0.15758	402.692
0.158489	403.853
0.159404	405.017
0.160325	406.184
0.16125	407.355
0.162181	408.529
0.163117	409.707
0.164059	410.888
0.165006	412.072
0.165959	413.26
0.166917	414.451
0.16788	415.645
0.16885	416.843
0.169824	418.045
0.170805	419.25
0.171791	420.458
0.172783	421.67
0.17378	422.886
0.174783	424.105
0.175792	425.327
0.176807	426.553
0.177828	427.782
0.178855	429.016
0.179887	430.252
0.180926	431.492
0.18197	432.736
0.183021	433.983
0.184077	435.234
0.18514	436.489
0.186209	437.747
0.187284	439.009
0.188365	440.274
0.189452	441.543
0.190546	442.816
0.191646	444.092
0.192752	445.372
0.193865	446.656
0.194984	447.943
0.19611	449.234
0.197242	450.529
0.198381	451.828
0.199526	453.13
0.200678	454.436
0.201837	455.746
0.203002	457.06
0.204174	458.377
0.205353	459.698
0.206538	461.023
0.20773	462.352
0.20893	463.685
0.210136	465.021
0.211349	466.362
0.212569	467.706
0.213796	469.054
0.21503	470.406
0.216272	471.762
0.21752	473.122
0.218776	474.486
0.220039	475.853
0.221309	477.225
0.222587	478.6
0.223872	479.98
0.225165	481.363
0.226464	482.751
0.227772	484.142
0.229087	485.538
0.230409	486.937
0.231739	488.341
0.233077	489.748
0.234423	491.16
0.235776	492.576
0.237137	493.996
0.238506	495.419
0.239883	496.847
0.241268	498.279
0.242661	499.716
0.244062	501.156
0.245471	502.601
0.246888	504.049
0.248313	505.502
0.249747	506.959
0.251189	508.42
0.252639	509.886
0.254097	511.356
0.255564	512.83
0.25704	514.308
0.258523	515.79
0.260016	517.277
0.261517	518.768
0.263027	520.263
0.264545	521.763
0.266073	523.267
0.267609	524.775
0.269153	526.287
0.270707	527.804
0.27227	529.326
0.273842	530.851
0.275423	532.382
0.277013	533.916
0.278612	535.455
0.280221	536.998
0.281838	538.546
0.283465	540.099
0.285102	541.655
0.286748	543.217
0.288403	544.782
0.290068	546.353
0.291743	547.927
0.293427	549.507
0.295121	551.091
0.296825	552.679
0.298538	554.272
0.300262	555.87
0.301995	557.472
0.303739	559.079
0.305492	560.69
0.307256	562.306
0.30903	563.927
0.310814	565.553
0.312608	567.183
0.314413	568.818
0.316228	570.457
0.318053	572.101
0.31989	573.75
0.321736	575.404
0.323594	577.063
0.325462	578.726
0.327341	580.394
0.32923	582.067
0.331131	583.745
0.333043	585.427
0.334965	587.115
0.336899	588.807
0.338844	590.504
0.3408	592.206
0.342768	593.913
0.344747	595.625
0.346737	597.342
0.348739	599.064
0.350752	600.79
0.352777	602.522
0.354813	604.259
0.356862	606.001
0.358922	607.747
0.360994	609.499
0.363078	611.256
0.365174	613.018
0.367282	614.785
0.369403	616.557
0.371535	618.334
0.37368	620.116
0.375837	621.904
0.378007	623.696
0.380189	625.494
0.382384	627.297
0.384592	629.105
0.386812	630.918
0.389045	632.737
0.391291	634.56
0.39355	636.39
0.395822	638.224
0.398107	640.063
0.400405	641.908
0.402717	643.759
0.405042	645.614
0.40738	647.475
0.409732	649.341
0.412098	651.213
0.414477	653.09
0.416869	654.972
0.419276	656.86
0.421697	658.754
0.424131	660.652
0.42658	662.557
0.429042	664.466
0.431519	666.382
0.43401	668.302
0.436516	670.229
0.439036	672.161
0.44157	674.098
0.44412	676.041
0.446684	677.99
0.449262	679.944
0.451856	681.904
0.454465	683.869
0.457088	685.84
0.459727	687.817
0.462381	689.8
0.46505	691.788
0.467735	693.782
0.470435	695.782
0.473151	697.787
0.475883	699.89
0.47863	702.194
0.481393	704.511
0.484172	706.84
0.486968	709.182
0.489779	711.537
0.492606	713.905
0.49545	716.285
0.49831	718.678
0.501187	721.084
0.504081	723.503
0.506991	725.935
0.509918	728.38
0.512861	730.838
0.515822	733.31
0.5188	735.794
0.521795	738.292
0.524807	740.803
0.527837	743.327
0.530884	745.865
0.533949	748.417
0.537032	750.981
0.540132	753.56
0.54325	756.152
0.546387	758.757
0.549541	761.376
0.552713	764.01
0.555904	766.656
0.559114	769.317
0.562341	771.991
0.565588	774.68
0.568853	777.382
0.572137	780.049
0.57544	782.702
0.578762	785.369
0.582103	788.049
0.585464	790.744
0.588844	793.452
0.592243	796.174
0.595662	798.91
0.599101	801.659
0.60256	804.423
0.606038	807.2
0.609537	809.992
0.613056	812.798
0.616595	815.617
