Stopping power dEdx from Ionisation for He3 Z = 2 in G4_Si, process name: ionIoni
E [MeV]	dEdx [MeV/mm]
0.001	13.1946
0.00100577	13.2461
0.00101158	13.2979
0.00101742	13.3501
0.00102329	13.4026
0.0010292	13.4554
0.00103514	13.5085
0.00104112	13.562
0.00104713	13.6158
0.00105317	13.6699
0.00105925	13.7243
0.00106537	13.7791
0.00107152	13.8342
0.00107771	13.8896
0.00108393	13.9453
0.00109018	14.0014
0.00109648	14.0578
0.00110281	14.1146
0.00110917	14.1716
0.00111558	14.229
0.00112202	14.2868
0.0011285	14.3448
0.00113501	14.3985
0.00114156	14.4507
0.00114815	14.5033
0.00115478	14.5562
0.00116145	14.6093
0.00116815	14.6628
0.0011749	14.7165
0.00118168	14.7706
0.0011885	14.825
0.00119536	14.8796
0.00120226	14.9346
0.00120921	14.9899
0.00121619	15.0454
0.00122321	15.1013
0.00123027	15.1575
0.00123737	15.2139
0.00124451	15.2707
0.0012517	15.3277
0.00125893	15.3851
0.00126619	15.4428
0.0012735	15.5007
0.00128086	15.559
0.00128825	15.6175
0.00129569	15.6764
0.00130317	15.7355
0.00131069	15.795
0.00131826	15.8547
0.00132587	15.9147
0.00133352	15.975
0.00134122	16.0356
0.00134896	16.0965
0.00135675	16.1577
0.00136458	16.2191
0.00137246	16.2809
0.00138038	16.3429
0.00138835	16.4052
0.00139637	16.4678
0.00140443	16.5307
0.00141254	16.5938
0.00142069	16.6572
0.00142889	16.7209
0.00143714	16.7849
0.00144544	16.8491
0.00145378	16.9136
0.00146218	16.9783
0.00147062	17.0433
0.00147911	17.1086
0.00148765	17.1741
0.00149624	17.2399
0.00150487	17.3059
0.00151356	17.3713
0.0015223	17.4367
0.00153109	17.5024
0.00153993	17.5683
0.00154882	17.6344
0.00155776	17.7008
0.00156675	17.7674
0.0015758	17.8343
0.00158489	17.9014
0.00159404	17.9687
0.00160325	18.0363
0.0016125	18.1042
0.00162181	18.1723
0.00163117	18.2406
0.00164059	18.3092
0.00165006	18.378
0.00165959	18.4471
0.00166917	18.5165
0.0016788	18.5861
0.0016885	18.6559
0.00169824	18.726
0.00170805	18.7964
0.00171791	18.867
0.00172783	18.9379
0.0017378	19.0091
0.00174783	19.0805
0.00175792	19.1522
0.00176807	19.2241
0.00177828	19.2963
0.00178855	19.3688
0.00179887	19.4416
0.00180926	19.5146
0.0018197	19.5879
0.00183021	19.6615
0.00184077	19.7354
0.0018514	19.8095
0.00186209	19.8839
0.00187284	19.9587
0.00188365	20.0337
0.00189452	20.1088
0.00190546	20.1843
0.00191646	20.2601
0.00192752	20.3361
0.00193865	20.4125
0.00194984	20.4891
0.0019611	20.566
0.00197242	20.6433
0.00198381	20.7208
0.00199526	20.7986
0.00200678	20.8767
0.00201837	20.9551
0.00203002	21.0338
0.00204174	21.1128
0.00205353	21.1921
0.00206538	21.2717
0.0020773	21.3516
0.0020893	21.4318
0.00210136	21.5123
0.00211349	21.5931
0.00212569	21.6743
0.00213796	21.7557
0.0021503	21.8374
0.00216272	21.9195
0.0021752	22.0018
0.00218776	22.0845
0.00220039	22.1675
0.00221309	22.2508
0.00222587	22.3344
0.00223872	22.4183
0.00225165	22.5026
0.00226464	22.5872
0.00227772	22.6721
0.00229087	22.7573
0.00230409	22.8429
0.00231739	22.9287
0.00233077	23.0149
0.00234423	23.1015
0.00235776	23.1883
0.00237137	23.2755
0.00238506	23.363
0.00239883	23.4509
0.00241268	23.539
0.00242661	23.6276
0.00244062	23.7164
0.00245471	23.8056
0.00246888	23.8951
0.00248313	23.9849
0.00249747	24.0751
0.00251189	24.1656
0.00252639	24.2565
0.00254097	24.3477
0.00255564	24.4393
0.0025704	24.5312
0.00258523	24.6234
0.00260016	24.716
0.00261517	24.809
0.00263027	24.9022
0.00264545	24.9959
0.00266073	25.0899
0.00267609	25.1842
0.00269153	25.2789
0.00270707	25.374
0.0027227	25.4694
0.00273842	25.5652
0.00275423	25.6614
0.00277013	25.7579
0.00278612	25.8548
0.00280221	25.952
0.00281838	26.0497
0.00283465	26.1477
0.00285102	26.246
0.00286748	26.3448
0.00288403	26.4439
0.00290068	26.5434
0.00291743	26.6433
0.00293427	26.7436
0.00295121	26.8443
0.00296825	26.9453
0.00298538	27.0468
0.00300262	27.1486
0.00301995	27.2335
0.00303739	27.3064
0.00305492	27.4094
0.00307256	27.5127
0.0030903	27.6165
0.00310814	27.7207
0.00312608	27.8252
0.00314413	27.9302
0.00316228	28.0356
0.00318053	28.1413
0.0031989	28.2475
0.00321736	28.3541
0.00323594	28.461
0.00325462	28.5684
0.00327341	28.6762
0.0032923	28.7844
0.00331131	28.8929
0.00333043	29.0019
0.00334965	29.1113
0.00336899	29.2211
0.00338844	29.3313
0.003408	29.4419
0.00342768	29.5529
0.00344747	29.6643
0.00346737	29.7761
0.00348739	29.8884
0.00350752	30.001
0.00352777	30.114
0.00354813	30.2275
0.00356862	30.3413
0.00358922	30.4556
0.00360994	30.5702
0.00363078	30.6853
0.00365174	30.8008
0.00367282	30.9167
0.00369403	31.033
0.00371535	31.1497
0.0037368	31.2668
0.00375837	31.3843
0.00378007	31.5023
0.00380189	31.6206
0.00382384	31.7394
0.00384592	31.8586
0.00386812	31.9783
0.00389045	32.0983
0.00391291	32.2188
0.0039355	32.3397
0.00395822	32.4611
0.00398107	32.5829
0.00400405	32.7051
0.00402717	32.8278
0.00405042	32.9509
0.0040738	33.0745
0.00409732	33.1985
0.00412098	33.323
0.00414477	33.448
0.00416869	33.5734
0.00419276	33.6993
0.00421697	33.8257
0.00424131	33.9526
0.0042658	34.08
0.00429042	34.2079
0.00431519	34.3363
0.0043401	34.4652
0.00436516	34.5946
0.00439036	34.7245
0.0044157	34.855
0.0044412	34.986
0.00446684	35.1175
0.00449262	35.2496
0.00451856	35.3822
0.00454465	35.5154
0.00457088	35.6492
0.00459727	35.7835
0.00462381	35.9184
0.0046505	36.0538
0.00467735	36.1898
0.00470435	36.3263
0.00473151	36.4634
0.00475883	36.601
0.0047863	36.7391
0.00481393	36.8778
0.00484172	37.017
0.00486968	37.1567
0.00489779	37.2969
0.00492606	37.4376
0.0049545	37.5789
0.0049831	37.7206
0.00501187	37.8628
0.00504081	38.0056
0.00506991	38.1488
0.00509918	38.2924
0.00512861	38.4366
0.00515822	38.5812
0.005188	38.7262
0.00521795	38.8717
0.00524807	39.0177
0.00527837	39.164
0.00530884	39.3108
0.00533949	39.4581
0.00537032	39.6058
0.00540132	39.7539
0.0054325	39.9025
0.00546387	40.0516
0.00549541	40.2013
0.00552713	40.3514
0.00555904	40.502
0.00559114	40.6532
0.00562341	40.8049
0.00565588	40.9573
0.00568853	41.1102
0.00572137	41.2637
0.0057544	41.4178
0.00578762	41.5725
0.00582103	41.7279
0.00585464	41.884
0.00588844	42.0408
0.00592243	42.1983
0.00595662	42.3565
0.00599101	42.5155
0.0060256	42.6753
0.00606038	42.8358
0.00609537	42.9972
0.00613056	43.1593
0.00616595	43.3222
0.00620155	43.4858
0.00623735	43.6502
0.00627336	43.8152
0.00630957	43.981
0.006346	44.1475
0.00638263	44.3147
0.00641948	44.4825
0.00645654	44.6509
0.00649382	44.82
0.00653131	44.9896
0.00656901	45.1599
0.00660693	45.3307
0.00664508	45.5021
0.00668344	45.6739
0.00672202	45.8463
0.00676083	46.0191
0.00679986	46.1924
0.00683912	46.3661
0.0068786	46.5403
0.00691831	46.7149
0.00695825	46.8901
0.00699842	47.0657
0.00703882	47.2418
0.00707946	47.4185
0.00712033	47.5958
0.00716143	47.7736
0.00720278	47.952
0.00724436	48.1311
0.00728618	48.3107
0.00732825	48.4911
0.00737055	48.6721
0.0074131	48.8538
0.0074559	49.0362
0.00749894	49.2194
0.00754223	49.4033
0.00758578	49.5882
0.00762957	49.7738
0.00767361	49.9602
0.00771792	50.1474
0.00776247	50.3354
0.00780728	50.5242
0.00785236	50.7139
0.00789769	50.9043
0.00794328	51.0955
0.00798914	51.2875
0.00803526	51.4802
0.00808165	51.6738
0.00812831	51.8682
0.00817523	52.0634
0.00822243	52.2593
0.0082699	52.4561
0.00831764	52.6536
0.00836566	52.8519
0.00841395	53.051
0.00846253	53.2509
0.00851138	53.4516
0.00856052	53.6531
0.00860994	53.8553
0.00865964	54.0583
0.00870964	54.2621
0.00875992	54.4666
0.00881049	54.6719
0.00886135	54.878
0.00891251	55.0848
0.00896396	55.2924
0.00901571	55.5008
0.00906776	55.7099
0.00912011	55.9197
0.00917276	56.1303
0.00922571	56.3417
0.00927897	56.5537
0.00933254	56.7665
0.00938642	56.9801
0.00944061	57.1942
0.00949511	57.409
0.00954993	57.6245
0.00960506	57.8407
0.00966051	58.0577
0.00971628	58.2754
0.00977237	58.4939
0.00982879	58.7131
0.00988553	58.9331
0.0099426	59.1538
0.01	59.3754
0.0100577	59.5977
0.0101158	59.8208
0.0101742	60.0446
0.0102329	60.2693
0.010292	60.4948
0.0103514	60.7211
0.0104112	60.9483
0.0104713	61.1762
0.0105317	61.4051
0.0105925	61.6347
0.0106537	61.8652
0.0107152	62.0966
0.0107771	62.3289
0.0108393	62.5621
0.0109018	62.7961
0.0109648	63.0311
0.0110281	63.267
0.0110917	63.5038
0.0111558	63.7415
0.0112202	63.9803
0.011285	64.2199
0.0113501	64.4607
0.0114156	64.7024
0.0114815	64.9451
0.0115478	65.1888
0.0116145	65.4335
0.0116815	65.6791
0.011749	65.9257
0.0118168	66.1732
0.011885	66.4217
0.0119536	66.6712
0.0120226	66.9216
0.0120921	67.1729
0.0121619	67.4252
0.0122321	67.6785
0.0123027	67.9326
0.0123737	68.1877
0.0124451	68.4437
0.012517	68.7006
0.0125893	68.9585
0.0126619	69.2172
0.012735	69.4768
0.0128086	69.7373
0.0128825	69.9987
0.0129569	70.261
0.0130317	70.5241
0.0131069	70.7881
0.0131826	71.0529
0.0132587	71.3186
0.0133352	71.5852
0.0134122	71.8526
0.0134896	72.1209
0.0135675	72.3901
0.0136458	72.6601
0.0137246	72.9311
0.0138038	73.203
0.0138835	73.4759
0.0139637	73.7497
0.0140443	74.0245
0.0141254	74.3003
0.0142069	74.577
0.0142889	74.8548
0.0143714	75.1336
0.0144544	75.4135
0.0145378	75.6944
0.0146218	75.9764
0.0147062	76.2596
0.0147911	76.5438
0.0148765	76.8292
0.0149624	77.1158
0.0150487	77.4035
0.0151356	77.6925
0.015223	77.9827
0.0153109	78.2741
0.0153993	78.5666
0.0154882	78.8604
0.0155776	79.1554
0.0156675	79.4515
0.015758	79.7489
0.0158489	80.0474
0.0159404	80.347
0.0160325	80.6479
0.016125	80.9499
0.0162181	81.253
0.0163117	81.5573
0.0164059	81.8627
0.0165006	82.1692
0.0165959	82.4769
0.0166917	82.7856
0.016788	83.0954
0.016885	83.4064
0.0169824	83.7183
0.0170805	84.0314
0.0171791	84.3455
0.0172783	84.6607
0.017378	84.977
0.0174783	85.2944
0.0175792	85.6128
0.0176807	85.9324
0.0177828	86.253
0.0178855	86.5747
0.0179887	86.8975
0.0180926	87.2213
0.018197	87.5463
0.0183021	87.8724
0.0184077	88.1996
0.018514	88.5279
0.0186209	88.8573
0.0187284	89.1879
0.0188365	89.5195
0.0189452	89.8523
0.0190546	90.1862
0.0191646	90.5213
0.0192752	90.8575
0.0193865	91.1949
0.0194984	91.5334
0.019611	91.8732
0.0197242	92.2141
0.0198381	92.5563
0.0199526	92.8997
0.0200678	93.2443
0.0201837	93.5901
0.0203002	93.9372
0.0204174	94.2856
0.0205353	94.6353
0.0206538	94.9863
0.020773	95.3386
0.020893	95.6922
0.0210136	96.0472
0.0211349	96.4035
0.0212569	96.7611
0.0213796	97.12
0.021503	97.4802
0.0216272	97.8418
0.021752	98.2046
0.0218776	98.5688
0.0220039	98.9342
0.0221309	99.301
0.0222587	99.669
0.0223872	100.038
0.0225165	100.409
0.0226464	100.781
0.0227772	101.154
0.0229087	101.529
0.0230409	101.904
0.0231739	102.281
0.0233077	102.66
0.0234423	103.039
0.0235776	103.42
0.0237137	103.803
0.0238506	104.186
0.0239883	104.571
0.0241268	104.957
0.0242661	105.345
0.0244062	105.734
0.0245471	106.124
0.0246888	106.516
0.0248313	106.909
0.0249747	107.303
0.0251189	107.699
0.0252639	108.096
0.0254097	108.494
0.0255564	108.894
0.025704	109.296
0.0258523	109.698
0.0260016	110.102
0.0261517	110.508
0.0263027	110.915
0.0264545	111.323
0.0266073	111.733
0.0267609	112.144
0.0269153	112.556
0.0270707	112.97
0.027227	113.386
0.0273842	113.803
0.0275423	114.221
0.0277013	114.641
0.0278612	115.062
0.0280221	115.485
0.0281838	115.909
0.0283465	116.335
0.0285102	116.762
0.0286748	117.19
0.0288403	117.62
0.0290068	118.052
0.0291743	118.484
0.0293427	118.919
0.0295121	119.355
0.0296825	119.792
0.0298538	120.231
0.0300262	120.671
0.0301995	121.112
0.0303739	121.555
0.0305492	122
0.0307256	122.446
0.030903	122.894
0.0310814	123.343
0.0312608	123.793
0.0314413	124.245
0.0316228	124.698
0.0318053	125.153
0.031989	125.609
0.0321736	126.067
0.0323594	126.526
0.0325462	126.986
0.0327341	127.448
0.032923	127.912
0.0331131	128.376
0.0333043	128.843
0.0334965	129.31
0.0336899	129.779
0.0338844	130.25
0.03408	130.722
0.0342768	131.195
0.0344747	131.67
0.0346737	132.147
0.0348739	132.624
0.0350752	133.104
0.0352777	133.584
0.0354813	134.067
0.0356862	134.55
0.0358922	135.036
0.0360994	135.523
0.0363078	136.011
0.0365174	136.501
0.0367282	136.992
0.0369403	137.485
0.0371535	137.98
0.037368	138.476
0.0375837	138.974
0.0378007	139.474
0.0380189	139.975
0.0382384	140.478
0.0384592	140.983
0.0386812	141.489
0.0389045	141.996
0.0391291	142.506
0.039355	143.016
0.0395822	143.529
0.0398107	144.042
0.0400405	144.558
0.0402717	145.074
0.0405042	145.592
0.040738	146.112
0.0409732	146.633
0.0412098	147.155
0.0414477	147.679
0.0416869	148.203
0.0419276	148.729
0.0421697	149.257
0.0424131	149.786
0.042658	150.316
0.0429042	150.848
0.0431519	151.381
0.043401	151.915
0.0436516	152.451
0.0439036	152.989
0.044157	153.528
0.044412	154.069
0.0446684	154.612
0.0449262	155.156
0.0451856	155.702
0.0454465	156.25
0.0457088	156.8
0.0459727	157.351
0.0462381	157.904
0.046505	158.458
0.0467735	159.015
0.0470435	159.572
0.0473151	160.132
0.0475883	160.692
0.047863	161.254
0.0481393	161.817
0.0484172	162.382
0.0486968	162.947
0.0489779	163.514
0.0492606	164.082
0.049545	164.651
0.049831	165.221
0.0501187	165.792
0.0504081	166.365
0.0506991	166.938
0.0509918	167.514
0.0512861	168.09
0.0515822	168.668
0.05188	169.248
0.0521795	169.83
0.0524807	170.413
0.0527837	170.998
0.0530884	171.585
0.0533949	172.174
0.0537032	172.765
0.0540132	173.357
0.054325	173.95
0.0546387	174.545
0.0549541	175.142
0.0552713	175.739
0.0555904	176.338
0.0559114	176.938
0.0562341	177.538
0.0565588	178.139
0.0568853	178.741
0.0572137	179.344
0.057544	179.947
0.0578762	180.552
0.0582103	181.157
0.0585464	181.763
0.0588844	182.371
0.0592243	182.98
0.0595662	183.59
0.0599101	184.202
0.060256	184.815
0.0606038	185.431
0.0609537	186.047
0.0613056	186.666
0.0616595	187.286
0.0620155	187.907
0.0623735	188.529
0.0627336	189.153
0.0630957	189.777
0.06346	190.403
0.0638263	191.029
0.0641948	191.656
0.0645654	192.283
0.0649382	192.912
0.0653131	193.54
0.0656901	194.17
0.0660693	194.801
0.0664508	195.433
0.0668344	196.066
0.0672202	196.7
0.0676083	197.336
0.0679986	197.973
0.0683912	198.612
0.068786	199.252
0.0691831	199.893
0.0695825	200.536
0.0699842	201.179
0.0703882	201.823
0.0707946	202.468
0.0712033	203.113
0.0716143	203.758
0.0720278	204.404
0.0724436	205.049
0.0728618	205.694
0.0732825	206.34
0.0737055	206.986
0.074131	207.632
0.074559	208.278
0.0749894	208.924
0.0754223	209.571
0.0758578	210.219
0.0762957	210.867
0.0767361	211.516
0.0771792	212.165
0.0776247	212.814
0.0780728	213.464
0.0785236	214.114
0.0789769	214.765
0.0794328	215.416
0.0798914	216.067
0.0803526	216.719
0.0808165	217.371
0.0812831	218.023
0.0817523	218.676
0.0822243	219.329
0.082699	219.982
0.0831764	220.636
0.0836566	221.29
0.0841395	221.945
0.0846253	222.599
0.0851138	223.254
0.0856052	223.91
0.0860994	224.565
0.0865964	225.221
0.0870964	225.878
0.0875992	226.534
0.0881049	227.191
0.0886135	227.849
0.0891251	228.506
0.0896396	229.164
0.0901571	229.823
0.0906776	230.481
0.0912011	231.14
0.0917276	231.8
0.0922571	232.46
0.0927897	233.12
0.0933254	233.78
0.0938642	234.441
0.0944061	235.101
0.0949511	235.759
0.0954993	236.418
0.0960506	237.077
0.0966051	237.736
0.0971628	238.395
0.0977237	239.055
0.0982879	239.714
0.0988553	240.374
0.099426	241.033
0.1	241.692
0.100577	242.352
0.101158	243.011
0.101742	243.669
0.102329	244.328
0.10292	244.986
0.103514	245.643
0.104112	246.3
0.104713	246.956
0.105317	247.612
0.105925	248.267
0.106537	248.921
0.107152	249.574
0.107771	250.226
0.108393	250.877
0.109018	251.527
0.109648	252.176
0.110281	252.823
0.110917	253.47
0.111558	254.114
0.112202	254.757
0.11285	255.398
0.113501	256.039
0.114156	256.678
0.114815	257.315
0.115478	257.95
0.116145	258.584
0.116815	259.216
0.11749	259.846
0.118168	260.474
0.11885	261.101
0.119536	261.725
0.120226	262.348
0.120921	262.969
0.121619	263.589
0.122321	264.206
0.123027	264.822
0.123737	265.436
0.124451	266.048
0.12517	266.659
0.125893	267.268
0.126619	267.875
0.12735	268.481
0.128086	269.085
0.128825	269.688
0.129569	270.289
0.130317	270.888
0.131069	271.486
0.131826	272.082
0.132587	272.677
0.133352	273.271
0.134122	273.863
0.134896	274.454
0.135675	275.042
0.136458	275.629
0.137246	276.215
0.138038	276.798
0.138835	277.379
0.139637	277.958
0.140443	278.535
0.141254	279.11
0.142069	279.682
0.142889	280.252
0.143714	280.819
0.144544	281.384
0.145378	281.946
0.146218	282.505
0.147062	283.062
0.147911	283.615
0.148765	284.166
0.149624	284.713
0.150487	285.257
0.151356	285.797
0.15223	286.334
0.153109	286.868
0.153993	287.399
0.154882	287.927
0.155776	288.451
0.156675	288.972
0.15758	289.491
0.158489	290.007
0.159404	290.52
0.160325	291.03
0.16125	291.538
0.162181	292.044
0.163117	292.547
0.164059	293.048
0.165006	293.547
0.165959	294.044
0.166917	294.539
0.16788	295.033
0.16885	295.525
0.169824	296.016
0.170805	296.506
0.171791	296.994
0.172783	297.481
0.17378	297.966
0.174783	298.449
0.175792	298.931
0.176807	299.41
0.177828	299.887
0.178855	300.361
0.179887	300.833
0.180926	301.301
0.18197	301.767
0.183021	302.23
0.184077	302.689
0.18514	303.144
0.186209	303.596
0.187284	304.044
0.188365	304.487
0.189452	304.926
0.190546	305.361
0.191646	305.791
0.192752	306.217
0.193865	306.639
0.194984	307.057
0.19611	307.471
0.197242	307.881
0.198381	308.287
0.199526	308.689
0.200678	309.088
0.201837	309.483
0.203002	309.875
0.204174	310.263
0.205353	310.649
0.206538	311.031
0.20773	311.411
0.20893	311.788
0.210136	312.162
0.211349	312.533
0.212569	312.9
0.213796	313.265
0.21503	313.626
0.216272	313.984
0.21752	314.338
0.218776	314.689
0.220039	315.036
0.221309	315.378
0.222587	315.717
0.223872	316.052
0.225165	316.382
0.226464	316.708
0.227772	317.03
0.229087	317.347
0.230409	317.66
0.231739	317.969
0.233077	318.273
0.234423	318.572
0.235776	318.868
0.237137	319.159
0.238506	319.445
0.239883	319.728
0.241268	320.006
0.242661	320.28
0.244062	320.55
0.245471	320.817
0.246888	321.079
0.248313	321.337
0.249747	321.592
0.251189	321.842
0.252639	322.089
0.254097	322.333
0.255564	322.573
0.25704	322.81
0.258523	323.043
0.260016	323.273
0.261517	323.501
0.263027	323.725
0.264545	323.945
0.266073	324.161
0.267609	324.375
0.269153	324.586
0.270707	324.793
0.27227	324.998
0.273842	325.199
0.275423	325.397
0.277013	325.592
0.278612	325.783
0.280221	325.971
0.281838	326.156
0.283465	326.337
0.285102	326.514
0.286748	326.687
0.288403	326.857
0.290068	327.023
0.291743	327.185
0.293427	327.342
0.295121	327.496
0.296825	327.645
0.298538	327.791
0.300262	327.931
0.301995	328.068
0.303739	328.2
0.305492	328.328
0.307256	328.451
0.30903	328.57
0.310814	328.684
0.312608	328.794
0.314413	328.9
0.316228	329.001
0.318053	329.098
0.31989	329.19
0.321736	329.278
0.323594	329.362
0.325462	329.441
0.327341	329.516
0.32923	329.587
0.331131	329.654
0.333043	329.717
0.334965	329.776
0.336899	329.83
0.338844	329.881
0.3408	329.928
0.342768	329.971
0.344747	330.01
0.346737	330.045
0.348739	330.077
0.350752	330.104
0.352777	330.128
0.354813	330.147
0.356862	330.163
0.358922	330.175
0.360994	330.183
0.363078	330.187
0.365174	330.187
0.367282	330.184
0.369403	330.176
0.371535	330.165
0.37368	330.15
0.375837	330.131
0.378007	330.108
0.380189	330.082
0.382384	330.051
0.384592	330.017
0.386812	329.979
0.389045	329.937
0.391291	329.89
0.39355	329.84
0.395822	329.785
0.398107	329.726
0.400405	329.663
0.402717	329.596
0.405042	329.524
0.40738	329.447
0.409732	329.366
0.412098	329.28
0.414477	329.19
0.416869	329.095
0.419276	328.995
0.421697	328.891
0.424131	328.782
0.42658	328.669
0.429042	328.552
0.431519	328.432
0.43401	328.307
0.436516	328.179
0.439036	328.047
0.44157	327.912
0.44412	327.774
0.446684	327.633
0.449262	327.49
0.451856	327.344
0.454465	327.196
0.457088	327.045
0.459727	326.892
0.462381	326.736
0.46505	326.578
0.467735	326.417
0.470435	326.252
0.473151	326.085
0.475883	325.914
0.47863	325.739
0.481393	325.561
0.484172	325.379
0.486968	325.193
0.489779	325.002
0.492606	324.808
0.49545	324.609
0.49831	324.405
0.501187	324.198
0.504081	323.987
0.506991	323.772
0.509918	323.554
0.512861	323.332
0.515822	323.107
0.5188	322.879
0.521795	322.648
0.524807	322.415
0.527837	322.179
0.530884	321.94
0.533949	321.699
0.537032	321.456
0.540132	321.21
0.54325	320.962
0.546387	320.711
0.549541	320.457
0.552713	320.2
0.555904	319.941
0.559114	319.678
0.562341	319.412
0.565588	319.144
0.568853	318.871
0.572137	318.596
0.57544	318.317
0.578762	318.034
0.582103	317.748
0.585464	317.458
0.588844	317.164
0.592243	316.865
0.595662	316.562
0.599101	316.255
0.60256	315.944
0.606038	315.627
0.609537	315.306
