Stopping power dEdx from Ionisation for K39[0.0] Z = 19 in Water, process name: ionIoni
E [MeV]	dEdx [MeV/mm]
0.001	22.7957
0.00100577	22.8618
0.00101158	22.9281
0.00101742	22.9945
0.00102329	23.0612
0.0010292	23.128
0.00103514	23.1951
0.00104112	23.2623
0.00104713	23.3298
0.00105317	23.3974
0.00105925	23.4652
0.00106537	23.5332
0.00107152	23.6014
0.00107771	23.6698
0.00108393	23.7384
0.00109018	23.8072
0.00109648	23.8762
0.00110281	23.9454
0.00110917	24.0148
0.00111558	24.0844
0.00112202	24.1542
0.0011285	24.2242
0.00113501	24.2944
0.00114156	24.3648
0.00114815	24.4354
0.00115478	24.5063
0.00116145	24.5773
0.00116815	24.6485
0.0011749	24.7199
0.00118168	24.7915
0.0011885	24.8634
0.00119536	24.9354
0.00120226	25.0077
0.00120921	25.0801
0.00121619	25.1528
0.00122321	25.2257
0.00123027	25.2988
0.00123737	25.3721
0.00124451	25.4456
0.0012517	25.5193
0.00125893	25.5932
0.00126619	25.6674
0.0012735	25.7418
0.00128086	25.8163
0.00128825	25.8911
0.00129569	25.9661
0.00130317	26.0414
0.00131069	26.1168
0.00131826	26.1924
0.00132587	26.2683
0.00133352	26.3444
0.00134122	26.4207
0.00134896	26.4973
0.00135675	26.574
0.00136458	26.651
0.00137246	26.7282
0.00138038	26.8056
0.00138835	26.8833
0.00139637	26.9611
0.00140443	27.0392
0.00141254	27.1175
0.00142069	27.1961
0.00142889	27.2748
0.00143714	27.3538
0.00144544	27.4331
0.00145378	27.5125
0.00146218	27.5922
0.00147062	27.6721
0.00147911	27.7522
0.00148765	27.8326
0.00149624	27.9132
0.00150487	27.994
0.00151356	28.0751
0.0015223	28.1564
0.00153109	28.238
0.00153993	28.3197
0.00154882	28.4017
0.00155776	28.484
0.00156675	28.5665
0.0015758	28.6492
0.00158489	28.7321
0.00159404	28.8153
0.00160325	28.8988
0.0016125	28.9824
0.00162181	29.0664
0.00163117	29.1505
0.00164059	29.2349
0.00165006	29.3196
0.00165959	29.4044
0.00166917	29.4896
0.0016788	29.575
0.0016885	29.6606
0.00169824	29.7465
0.00170805	29.8326
0.00171791	29.9189
0.00172783	30.0056
0.0017378	30.0924
0.00174783	30.1795
0.00175792	30.2669
0.00176807	30.3545
0.00177828	30.4424
0.00178855	30.5305
0.00179887	30.6189
0.00180926	30.7075
0.0018197	30.7964
0.00183021	30.8856
0.00184077	30.975
0.0018514	31.0646
0.00186209	31.1546
0.00187284	31.2447
0.00188365	31.3352
0.00189452	31.4259
0.00190546	31.5168
0.00191646	31.6081
0.00192752	31.6995
0.00193865	31.7913
0.00194984	31.8833
0.0019611	31.9756
0.00197242	32.0681
0.00198381	32.1609
0.00199526	32.254
0.00200678	32.3474
0.00201837	32.441
0.00203002	32.5349
0.00204174	32.629
0.00205353	32.7234
0.00206538	32.8181
0.0020773	32.9131
0.0020893	33.0084
0.00210136	33.1039
0.00211349	33.1997
0.00212569	33.2958
0.00213796	33.3921
0.0021503	33.4887
0.00216272	33.5856
0.0021752	33.6828
0.00218776	33.7803
0.00220039	33.878
0.00221309	33.9761
0.00222587	34.0744
0.00223872	34.173
0.00225165	34.2718
0.00226464	34.371
0.00227772	34.4705
0.00229087	34.5702
0.00230409	34.6702
0.00231739	34.7705
0.00233077	34.8711
0.00234423	34.972
0.00235776	35.0732
0.00237137	35.1747
0.00238506	35.2764
0.00239883	35.3785
0.00241268	35.4809
0.00242661	35.5835
0.00244062	35.6864
0.00245471	35.7897
0.00246888	35.8932
0.00248313	35.9971
0.00249747	36.1012
0.00251189	36.2056
0.00252639	36.3104
0.00254097	36.4154
0.00255564	36.5208
0.0025704	36.6264
0.00258523	36.7323
0.00260016	36.8386
0.00261517	36.9452
0.00263027	37.052
0.00264545	37.1592
0.00266073	37.2667
0.00267609	37.3745
0.00269153	37.4826
0.00270707	37.591
0.0027227	37.6997
0.00273842	37.8088
0.00275423	37.9181
0.00277013	38.0278
0.00278612	38.1378
0.00280221	38.2481
0.00281838	38.3587
0.00283465	38.4697
0.00285102	38.5809
0.00286748	38.6925
0.00288403	38.8044
0.00290068	38.9167
0.00291743	39.0292
0.00293427	39.1421
0.00295121	39.2553
0.00296825	39.3688
0.00298538	39.4827
0.00300262	39.5969
0.00301995	39.7114
0.00303739	39.8262
0.00305492	39.9414
0.00307256	40.0569
0.0030903	40.1727
0.00310814	40.2889
0.00312608	40.4054
0.00314413	40.5222
0.00316228	40.6394
0.00318053	40.7569
0.0031989	40.8748
0.00321736	40.993
0.00323594	41.1115
0.00325462	41.2304
0.00327341	41.3496
0.0032923	41.4692
0.00331131	41.5891
0.00333043	41.7094
0.00334965	41.83
0.00336899	41.9509
0.00338844	42.0722
0.003408	42.1938
0.00342768	42.3158
0.00344747	42.4382
0.00346737	42.5609
0.00348739	42.6839
0.00350752	42.8074
0.00352777	42.9311
0.00354813	43.0552
0.00356862	43.1797
0.00358922	43.3046
0.00360994	43.4298
0.00363078	43.5553
0.00365174	43.6812
0.00367282	43.8075
0.00369403	43.9342
0.00371535	44.0612
0.0037368	44.1886
0.00375837	44.3163
0.00378007	44.4444
0.00380189	44.5729
0.00382384	44.7018
0.00384592	44.831
0.00386812	44.9606
0.00389045	45.0906
0.00391291	45.2209
0.0039355	45.3516
0.00395822	45.4827
0.00398107	45.6142
0.00400405	45.7461
0.00402717	45.8783
0.00405042	46.0109
0.0040738	46.1439
0.00409732	46.2773
0.00412098	46.4111
0.00414477	46.5452
0.00416869	46.6798
0.00419276	46.8147
0.00421697	46.95
0.00424131	47.0857
0.0042658	47.2218
0.00429042	47.3583
0.00431519	47.4952
0.0043401	47.6325
0.00436516	47.7701
0.00439036	47.9082
0.0044157	48.0467
0.0044412	48.1855
0.00446684	48.3248
0.00449262	48.4645
0.00451856	48.6046
0.00454465	48.745
0.00457088	48.8859
0.00459727	49.0272
0.00462381	49.1689
0.0046505	49.311
0.00467735	49.4535
0.00470435	49.5964
0.00473151	49.7398
0.00475883	49.8835
0.0047863	50.0277
0.00481393	50.1723
0.00484172	50.3172
0.00486968	50.4627
0.00489779	50.6085
0.00492606	50.7547
0.0049545	50.9014
0.0049831	51.0485
0.00501187	51.196
0.00504081	51.344
0.00506991	51.4923
0.00509918	51.6411
0.00512861	51.7904
0.00515822	51.94
0.005188	52.0901
0.00521795	52.1288
0.00524807	52.2791
0.00527837	52.4299
0.00530884	52.5811
0.00533949	52.7327
0.00537032	52.8847
0.00540132	53.0372
0.0054325	53.1901
0.00546387	53.3435
0.00549541	53.4973
0.00552713	53.6516
0.00555904	53.8063
0.00559114	53.9615
0.00562341	54.1171
0.00565588	54.2731
0.00568853	54.4296
0.00572137	54.5865
0.0057544	54.7439
0.00578762	54.9018
0.00582103	55.0601
0.00585464	55.2189
0.00588844	55.3781
0.00592243	55.5378
0.00595662	55.6979
0.00599101	55.8585
0.0060256	56.0196
0.00606038	56.1811
0.00609537	56.3432
0.00613056	56.5056
0.00616595	56.6686
0.00620155	56.832
0.00623735	56.9958
0.00627336	57.1602
0.00630957	57.325
0.006346	57.4903
0.00638263	57.6561
0.00641948	57.8224
0.00645654	57.9891
0.00649382	58.1563
0.00653131	58.324
0.00656901	58.4922
0.00660693	58.6609
0.00664508	58.83
0.00668344	58.9997
0.00672202	59.1698
0.00676083	59.3404
0.00679986	59.5115
0.00683912	59.6831
0.0068786	59.8552
0.00691831	60.0278
0.00695825	60.2009
0.00699842	60.3745
0.00703882	60.5486
0.00707946	60.7232
0.00712033	60.8983
0.00716143	61.0739
0.00720278	61.2501
0.00724436	61.4267
0.00728618	61.6038
0.00732825	61.7815
0.00737055	61.9596
0.0074131	62.1383
0.0074559	62.3175
0.00749894	62.4972
0.00754223	62.6774
0.00758578	62.8581
0.00762957	63.0394
0.00767361	63.2212
0.00771792	63.4035
0.00776247	63.5863
0.00780728	63.7697
0.00785236	63.9536
0.00789769	64.138
0.00794328	64.323
0.00798914	64.5085
0.00803526	64.6945
0.00808165	64.8811
0.00812831	65.0682
0.00817523	65.2558
0.00822243	65.444
0.0082699	65.6327
0.00831764	65.822
0.00836566	66.0118
0.00841395	66.2022
0.00846253	66.3931
0.00851138	66.5845
0.00856052	66.7765
0.00860994	66.9691
0.00865964	67.1622
0.00870964	67.3559
0.00875992	67.5502
0.00881049	67.745
0.00886135	67.9403
0.00891251	68.1362
0.00896396	68.3327
0.00901571	68.5298
0.00906776	68.7274
0.00912011	68.9256
0.00917276	69.1244
0.00922571	69.3237
0.00927897	69.5236
0.00933254	69.7241
0.00938642	69.9252
0.00944061	70.1269
0.00949511	70.3291
0.00954993	70.5319
0.00960506	70.7353
0.00966051	70.9393
0.00971628	71.1439
0.00977237	71.3491
0.00982879	71.5548
0.00988553	71.7612
0.0099426	71.9681
0.01	72.1757
0.0100577	72.3838
0.0101158	72.5926
0.0101742	72.8019
0.0102329	73.0119
0.010292	73.2224
0.0103514	73.4336
0.0104112	73.6454
0.0104713	73.8578
0.0105317	74.0708
0.0105925	74.2844
0.0106537	74.4986
0.0107152	74.7135
0.0107771	74.9289
0.0108393	75.145
0.0109018	75.3617
0.0109648	75.5791
0.0110281	75.797
0.0110917	76.0156
0.0111558	76.2349
0.0112202	76.4547
0.011285	76.6752
0.0113501	76.8963
0.0114156	77.1181
0.0114815	77.3405
0.0115478	77.5636
0.0116145	77.7873
0.0116815	78.0116
0.011749	78.2366
0.0118168	78.4622
0.011885	78.6885
0.0119536	78.9154
0.0120226	79.143
0.0120921	79.3713
0.0121619	79.6002
0.0122321	79.8298
0.0123027	80.06
0.0123737	80.2909
0.0124451	80.5225
0.012517	80.7547
0.0125893	80.9876
0.0126619	81.2212
0.012735	81.4554
0.0128086	81.6903
0.0128825	81.9259
0.0129569	82.1622
0.0130317	82.3992
0.0131069	82.6368
0.0131826	82.8752
0.0132587	83.1142
0.0133352	83.3539
0.0134122	83.5943
0.0134896	83.8354
0.0135675	84.0772
0.0136458	84.3197
0.0137246	84.5629
0.0138038	84.8068
0.0138835	85.0514
0.0139637	85.2967
0.0140443	85.5427
0.0141254	85.7894
0.0142069	86.0368
0.0142889	86.285
0.0143714	86.5338
0.0144544	86.7834
0.0145378	87.0337
0.0146218	87.2847
0.0147062	87.5365
0.0147911	87.7889
0.0148765	88.0421
0.0149624	88.2961
0.0150487	88.5507
0.0151356	88.8061
0.015223	89.0623
0.0153109	89.3192
0.0153993	89.5768
0.0154882	89.8351
0.0155776	90.0942
0.0156675	90.3541
0.015758	90.6147
0.0158489	90.8761
0.0159404	91.1382
0.0160325	91.401
0.016125	91.6647
0.0162181	91.9291
0.0163117	92.1942
0.0164059	92.4601
0.0165006	92.7268
0.0165959	92.9943
0.0166917	93.2625
0.016788	93.5315
0.016885	93.8013
0.0169824	94.0718
0.0170805	94.3431
0.0171791	94.6153
0.0172783	94.8882
0.017378	95.1619
0.0174783	95.4363
0.0175792	95.7116
0.0176807	95.9877
0.0177828	96.2645
0.0178855	96.5422
0.0179887	96.8207
0.0180926	97.0999
0.018197	97.38
0.0183021	97.6609
0.0184077	97.9426
0.018514	98.2251
0.0186209	98.5084
0.0187284	98.7926
0.0188365	99.0775
0.0189452	99.3633
0.0190546	99.6499
0.0191646	99.9374
0.0192752	100.226
0.0193865	100.515
0.0194984	100.805
0.019611	101.095
0.0197242	101.387
0.0198381	101.679
0.0199526	101.973
0.0200678	102.267
0.0201837	102.562
0.0203002	102.858
0.0204174	103.154
0.0205353	103.452
0.0206538	103.75
0.020773	104.05
0.020893	104.35
0.0210136	104.651
0.0211349	104.953
0.0212569	105.255
0.0213796	105.559
0.021503	105.864
0.0216272	106.169
0.021752	106.475
0.0218776	106.782
0.0220039	107.09
0.0221309	107.399
0.0222587	107.709
0.0223872	108.02
0.0225165	108.331
0.0226464	108.644
0.0227772	108.957
0.0229087	109.272
0.0230409	109.587
0.0231739	109.903
0.0233077	110.22
0.0234423	110.538
0.0235776	110.857
0.0237137	111.177
0.0238506	111.497
0.0239883	111.819
0.0241268	112.141
0.0242661	112.465
0.0244062	112.789
0.0245471	113.115
0.0246888	113.441
0.0248313	113.768
0.0249747	114.096
0.0251189	114.426
0.0252639	114.756
0.0254097	115.087
0.0255564	115.419
0.025704	115.752
0.0258523	116.086
0.0260016	116.421
0.0261517	116.756
0.0263027	117.093
0.0264545	117.431
0.0266073	117.77
0.0267609	118.109
0.0269153	118.45
0.0270707	118.792
0.027227	119.135
0.0273842	119.478
0.0275423	119.823
0.0277013	120.169
0.0278612	120.515
0.0280221	120.863
0.0281838	121.212
0.0283465	121.561
0.0285102	121.912
0.0286748	122.264
0.0288403	122.616
0.0290068	122.97
0.0291743	123.325
0.0293427	123.681
0.0295121	124.038
0.0296825	124.395
0.0298538	124.754
0.0300262	125.114
0.0301995	125.475
0.0303739	125.837
0.0305492	126.2
0.0307256	126.564
0.030903	126.929
0.0310814	127.296
0.0312608	127.663
0.0314413	128.031
0.0316228	128.401
0.0318053	128.771
0.031989	129.143
0.0321736	129.515
0.0323594	129.889
0.0325462	130.263
0.0327341	130.639
0.032923	131.016
0.0331131	131.394
0.0333043	131.773
0.0334965	132.153
0.0336899	132.535
0.0338844	132.917
0.03408	133.301
0.0342768	133.685
0.0344747	134.071
0.0346737	134.458
0.0348739	134.846
0.0350752	135.235
0.0352777	135.625
0.0354813	136.016
0.0356862	136.409
0.0358922	136.802
0.0360994	137.197
0.0363078	137.593
0.0365174	137.99
0.0367282	138.388
0.0369403	138.787
0.0371535	139.188
0.037368	139.589
0.0375837	139.992
0.0378007	140.396
0.0380189	140.801
0.0382384	141.207
0.0384592	141.615
0.0386812	142.023
0.0389045	142.433
0.0391291	142.844
0.039355	143.256
0.0395822	143.67
0.0398107	144.084
0.0400405	144.5
0.0402717	144.917
0.0405042	145.335
0.040738	145.754
0.0409732	146.175
0.0412098	146.597
0.0414477	147.02
0.0416869	147.444
0.0419276	147.869
0.0421697	148.296
0.0424131	148.724
0.042658	149.153
0.0429042	149.583
0.0431519	150.015
0.043401	150.448
0.0436516	150.882
0.0439036	151.317
0.044157	151.754
0.044412	152.192
0.0446684	152.631
0.0449262	153.071
0.0451856	153.513
0.0454465	153.956
0.0457088	154.4
0.0459727	154.846
0.0462381	155.293
0.046505	155.741
0.0467735	156.19
0.0470435	156.641
0.0473151	157.093
0.0475883	157.546
0.047863	158.001
0.0481393	158.457
0.0484172	158.914
0.0486968	159.373
0.0489779	159.832
0.0492606	160.294
0.049545	160.756
0.049831	161.22
0.0501187	161.685
0.0504081	162.152
0.0506991	162.62
0.0509918	163.089
0.0512861	163.56
0.0515822	164.032
0.05188	164.505
0.0521795	164.98
0.0524807	165.456
0.0527837	165.933
0.0530884	166.412
0.0533949	166.893
0.0537032	167.374
0.0540132	167.857
0.054325	168.342
0.0546387	168.827
0.0549541	169.315
0.0552713	169.803
0.0555904	170.293
0.0559114	170.785
0.0562341	171.278
0.0565588	171.772
0.0568853	172.268
0.0572137	172.765
0.057544	173.263
0.0578762	173.763
0.0582103	174.265
0.0585464	174.768
0.0588844	175.272
0.0592243	175.778
0.0595662	176.285
0.0599101	176.794
0.060256	177.304
0.0606038	177.816
0.0609537	178.329
0.0613056	178.844
0.0616595	179.36
0.0620155	179.878
0.0623735	180.397
0.0627336	180.918
0.0630957	181.44
0.06346	181.963
0.0638263	182.489
0.0641948	183.015
0.0645654	183.543
0.0649382	184.073
0.0653131	184.604
0.0656901	185.137
0.0660693	185.672
0.0664508	186.207
0.0668344	186.745
0.0672202	187.284
0.0676083	187.824
0.0679986	188.367
0.0683912	188.91
0.068786	189.455
0.0691831	190.002
0.0695825	190.551
0.0699842	191.101
0.0703882	191.652
0.0707946	192.205
0.0712033	192.76
0.0716143	193.317
0.0720278	193.875
0.0724436	194.434
0.0728618	194.995
0.0732825	195.558
0.0737055	196.123
0.074131	196.689
0.074559	197.257
0.0749894	197.826
0.0754223	198.397
0.0758578	198.97
0.0762957	199.544
0.0767361	200.12
0.0771792	200.698
0.0776247	201.277
0.0780728	201.858
0.0785236	202.441
0.0789769	203.025
0.0794328	203.611
0.0798914	204.199
0.0803526	204.788
0.0808165	205.379
0.0812831	205.972
0.0817523	206.567
0.0822243	207.163
0.082699	207.761
0.0831764	208.361
0.0836566	208.962
0.0841395	209.565
0.0846253	210.17
0.0851138	210.777
0.0856052	211.386
0.0860994	211.996
0.0865964	212.608
0.0870964	213.221
0.0875992	213.837
0.0881049	214.454
0.0886135	215.073
0.0891251	215.694
0.0896396	216.317
0.0901571	216.941
0.0906776	217.568
0.0912011	218.196
0.0917276	218.826
0.0922571	219.457
0.0927897	220.091
0.0933254	220.726
0.0938642	221.364
0.0944061	222.003
0.0949511	222.644
0.0954993	223.286
0.0960506	223.931
0.0966051	224.577
0.0971628	225.226
0.0977237	225.876
0.0982879	226.528
0.0988553	227.182
0.099426	227.838
0.1	228.496
0.100577	229.156
0.101158	229.817
0.101742	230.481
0.102329	231.146
0.10292	231.813
0.103514	232.483
0.104112	233.154
0.104713	233.827
0.105317	234.502
0.105925	235.179
0.106537	235.858
0.107152	236.539
0.107771	237.222
0.108393	237.907
0.109018	238.594
0.109648	239.283
0.110281	239.974
0.110917	240.667
0.111558	241.362
0.112202	242.059
0.11285	242.757
0.113501	243.458
0.114156	244.161
0.114815	244.866
0.115478	245.573
0.116145	246.282
0.116815	246.994
0.11749	247.707
0.118168	248.422
0.11885	249.139
0.119536	249.859
0.120226	250.58
0.120921	251.304
0.121619	252.029
0.122321	252.757
0.123027	253.487
0.123737	254.219
0.124451	254.953
0.12517	255.689
0.125893	256.428
0.126619	257.168
0.12735	257.911
0.128086	258.655
0.128825	259.402
0.129569	260.151
0.130317	260.903
0.131069	261.656
0.131826	262.412
0.132587	263.17
0.133352	263.93
0.134122	264.692
0.134896	265.456
0.135675	266.223
0.136458	266.991
0.137246	267.763
0.138038	268.536
0.138835	269.311
0.139637	270.089
0.140443	270.869
0.141254	271.651
0.142069	272.436
0.142889	273.223
0.143714	274.012
0.144544	274.803
0.145378	275.597
0.146218	276.393
0.147062	277.191
0.147911	277.991
0.148765	278.794
0.149624	279.599
0.150487	280.407
0.151356	281.217
0.15223	282.029
0.153109	282.844
0.153993	283.661
0.154882	284.48
0.155776	285.301
0.156675	286.125
0.15758	286.952
0.158489	287.781
0.159404	288.612
0.160325	289.445
0.16125	290.281
0.162181	291.12
0.163117	291.961
0.164059	292.804
0.165006	293.65
0.165959	294.498
0.166917	295.349
0.16788	296.202
0.16885	297.057
0.169824	297.915
0.170805	298.776
0.171791	299.639
0.172783	300.504
0.17378	301.372
0.174783	302.243
0.175792	303.116
0.176807	303.992
0.177828	304.87
0.178855	305.75
0.179887	306.634
0.180926	307.519
0.18197	308.408
0.183021	309.299
0.184077	310.192
0.18514	311.088
0.186209	311.987
0.187284	312.888
0.188365	313.792
0.189452	314.698
0.190546	315.607
0.191646	316.519
0.192752	317.434
0.193865	318.351
0.194984	319.27
0.19611	320.193
0.197242	321.118
0.198381	322.045
0.199526	322.976
0.200678	323.909
0.201837	324.845
0.203002	325.783
0.204174	326.724
0.205353	327.668
0.206538	328.615
0.20773	329.564
0.20893	330.516
0.210136	331.471
0.211349	332.429
0.212569	333.39
0.213796	334.353
0.21503	335.319
0.216272	336.288
0.21752	337.259
0.218776	338.234
0.220039	339.211
0.221309	340.191
0.222587	341.174
0.223872	342.16
0.225165	343.148
0.226464	344.14
0.227772	345.134
0.229087	346.131
0.230409	347.132
0.231739	348.135
0.233077	349.141
0.234423	350.149
0.235776	351.161
0.237137	352.176
0.238506	353.194
0.239883	354.214
0.241268	355.238
0.242661	356.264
0.244062	357.294
0.245471	358.326
0.246888	359.362
0.248313	360.4
0.249747	361.442
0.251189	362.486
0.252639	363.534
0.254097	364.584
0.255564	365.638
0.25704	366.694
0.258523	367.754
0.260016	368.817
0.261517	369.883
0.263027	370.952
0.264545	372.024
0.266073	373.099
0.267609	374.177
0.269153	375.258
0.270707	376.343
0.27227	377.431
0.273842	378.521
0.275423	379.615
0.277013	380.712
0.278612	381.813
0.280221	382.916
0.281838	384.023
0.283465	385.133
0.285102	386.246
0.286748	387.362
0.288403	388.482
0.290068	389.605
0.291743	390.731
0.293427	391.86
0.295121	392.993
0.296825	394.129
0.298538	395.268
0.300262	396.41
0.301995	397.556
0.303739	398.705
0.305492	399.858
0.307256	401.014
0.30903	402.173
0.310814	403.335
0.312608	404.501
0.314413	405.67
0.316228	406.843
0.318053	408.019
0.31989	409.199
0.321736	410.381
0.323594	411.568
0.325462	412.758
0.327341	413.951
0.32923	415.147
0.331131	416.347
0.333043	417.551
0.334965	418.758
0.336899	419.969
0.338844	421.183
0.3408	422.4
0.342768	423.622
0.344747	424.846
0.346737	426.075
0.348739	427.306
0.350752	428.542
0.352777	429.781
0.354813	431.023
0.356862	432.269
0.358922	433.519
0.360994	434.773
0.363078	436.03
0.365174	437.29
0.367282	438.555
0.369403	439.823
0.371535	441.094
0.37368	442.37
0.375837	443.649
0.378007	444.931
0.380189	446.218
0.382384	447.508
0.384592	448.802
0.386812	450.1
0.389045	451.401
0.391291	452.706
0.39355	454.015
0.395822	455.328
0.398107	456.645
0.400405	457.965
0.402717	459.29
0.405042	460.618
0.40738	461.95
0.409732	463.286
0.412098	464.625
0.414477	465.969
0.416869	467.316
0.419276	468.668
0.421697	470.023
0.424131	471.383
0.42658	472.746
0.429042	474.113
0.431519	475.484
0.43401	476.859
0.436516	478.238
0.439036	479.621
0.44157	481.008
0.44412	482.4
0.446684	483.795
0.449262	485.194
0.451856	486.597
0.454465	488.005
0.457088	489.416
0.459727	490.832
0.462381	492.251
0.46505	493.675
0.467735	495.103
0.470435	496.535
0.473151	497.971
0.475883	499.411
0.47863	500.856
0.481393	502.305
0.484172	503.758
0.486968	505.215
0.489779	506.676
0.492606	508.142
0.49545	509.612
0.49831	511.086
0.501187	512.564
0.504081	514.047
0.506991	515.534
0.509918	517.025
0.512861	518.521
0.515822	520.021
0.5188	521.525
0.521795	523.034
0.524807	524.547
0.527837	526.065
0.530884	527.587
0.533949	529.113
0.537032	530.644
0.540132	532.179
0.54325	533.719
0.546387	535.263
0.549541	536.811
0.552713	538.364
0.555904	539.922
0.559114	541.484
0.562341	543.051
0.565588	544.622
0.568853	546.198
0.572137	547.778
0.57544	549.363
0.578762	550.953
0.582103	552.547
0.585464	554.146
0.588844	555.749
0.592243	557.357
0.595662	558.97
0.599101	560.587
0.60256	562.21
0.606038	563.836
