Stopping power dEdx from Ionisation for Li7[0.0] Z = 3 in Water, process name: ionIoni
E [MeV]	dEdx [MeV/mm]
0.001	20.0148
0.00100577	20.0728
0.00101158	20.1309
0.00101742	20.1892
0.00102329	20.2477
0.0010292	20.3064
0.00103514	20.3652
0.00104112	20.4242
0.00104713	20.4834
0.00105317	20.5427
0.00105925	20.6022
0.00106537	20.6619
0.00107152	20.7217
0.00107771	20.7817
0.00108393	20.8419
0.00109018	20.9023
0.00109648	20.9628
0.00110281	21.0235
0.00110917	21.0844
0.00111558	21.1455
0.00112202	21.2067
0.0011285	21.2682
0.00113501	21.3298
0.00114156	21.3915
0.00114815	21.4535
0.00115478	21.5156
0.00116145	21.5779
0.00116815	21.6404
0.0011749	21.7031
0.00118168	21.7659
0.0011885	21.8289
0.00119536	21.8922
0.00120226	21.9555
0.00120921	22.0191
0.00121619	22.0829
0.00122321	22.1468
0.00123027	22.2109
0.00123737	22.2753
0.00124451	22.3398
0.0012517	22.4044
0.00125893	22.4693
0.00126619	22.5344
0.0012735	22.5996
0.00128086	22.665
0.00128825	22.7307
0.00129569	22.7965
0.00130317	22.8625
0.00131069	22.9287
0.00131826	22.995
0.00132587	23.0616
0.00133352	23.1284
0.00134122	23.1953
0.00134896	23.2625
0.00135675	23.3298
0.00136458	23.3974
0.00137246	23.4651
0.00138038	23.533
0.00138835	23.6011
0.00139637	23.6695
0.00140443	23.738
0.00141254	23.8067
0.00142069	23.8756
0.00142889	23.9447
0.00143714	24.014
0.00144544	24.0835
0.00145378	24.1532
0.00146218	24.2232
0.00147062	24.2933
0.00147911	24.3636
0.00148765	24.4341
0.00149624	24.5048
0.00150487	24.5757
0.00151356	24.6469
0.0015223	24.7182
0.00153109	24.7897
0.00153993	24.8615
0.00154882	24.9334
0.00155776	25.0056
0.00156675	25.078
0.0015758	25.1505
0.00158489	25.2233
0.00159404	25.2963
0.00160325	25.3695
0.0016125	25.4429
0.00162181	25.5166
0.00163117	25.5904
0.00164059	25.6645
0.00165006	25.7387
0.00165959	25.8132
0.00166917	25.8879
0.0016788	25.9628
0.0016885	26.0379
0.00169824	26.1133
0.00170805	26.1888
0.00171791	26.2646
0.00172783	26.3406
0.0017378	26.4168
0.00174783	26.4933
0.00175792	26.5699
0.00176807	26.6468
0.00177828	26.7239
0.00178855	26.8012
0.00179887	26.8788
0.00180926	26.9565
0.0018197	27.0345
0.00183021	27.1127
0.00184077	27.1912
0.0018514	27.2698
0.00186209	27.3487
0.00187284	27.4279
0.00188365	27.5072
0.00189452	27.5868
0.00190546	27.6666
0.00191646	27.7466
0.00192752	27.8269
0.00193865	27.9074
0.00194984	27.9881
0.0019611	28.0691
0.00197242	28.1503
0.00198381	28.2317
0.00199526	28.3134
0.00200678	28.3953
0.00201837	28.4774
0.00203002	28.5598
0.00204174	28.6424
0.00205353	28.7253
0.00206538	28.8083
0.0020773	28.8917
0.0020893	28.9752
0.00210136	29.059
0.00211349	29.1431
0.00212569	29.2274
0.00213796	29.3119
0.0021503	29.3967
0.00216272	29.4817
0.0021752	29.567
0.00218776	29.6525
0.00220039	29.7383
0.00221309	29.8243
0.00222587	29.9105
0.00223872	29.997
0.00225165	30.0838
0.00226464	30.1708
0.00227772	30.2581
0.00229087	30.3456
0.00230409	30.4333
0.00231739	30.5213
0.00233077	30.6096
0.00234423	30.6981
0.00235776	30.7869
0.00237137	30.8759
0.00238506	30.9652
0.00239883	31.0548
0.00241268	31.1446
0.00242661	31.2346
0.00244062	31.325
0.00245471	31.4155
0.00246888	31.5064
0.00248313	31.5975
0.00249747	31.6888
0.00251189	31.7805
0.00252639	31.8724
0.00254097	31.9645
0.00255564	32.057
0.0025704	32.1497
0.00258523	32.2426
0.00260016	32.3358
0.00261517	32.4293
0.00263027	32.5231
0.00264545	32.6171
0.00266073	32.7114
0.00267609	32.806
0.00269153	32.9009
0.00270707	32.996
0.0027227	33.0914
0.00273842	33.1871
0.00275423	33.283
0.00277013	33.3792
0.00278612	33.4757
0.00280221	33.5725
0.00281838	33.6696
0.00283465	33.7669
0.00285102	33.8645
0.00286748	33.9624
0.00288403	34.0606
0.00290068	34.1591
0.00291743	34.2578
0.00293427	34.3569
0.00295121	34.4562
0.00296825	34.5558
0.00298538	34.6557
0.00300262	34.7559
0.00301995	34.8564
0.00303739	34.9571
0.00305492	35.0582
0.00307256	35.1595
0.0030903	35.2612
0.00310814	35.3631
0.00312608	35.4653
0.00314413	35.5678
0.00316228	35.6706
0.00318053	35.7737
0.0031989	35.8771
0.00321736	35.9808
0.00323594	36.0848
0.00325462	36.1891
0.00327341	36.2937
0.0032923	36.3987
0.00331131	36.5039
0.00333043	36.6094
0.00334965	36.7152
0.00336899	36.8213
0.00338844	36.9277
0.003408	37.0345
0.00342768	37.1415
0.00344747	37.2488
0.00346737	37.3565
0.00348739	37.4645
0.00350752	37.5727
0.00352777	37.6813
0.00354813	37.7902
0.00356862	37.8995
0.00358922	38.009
0.00360994	38.1188
0.00363078	38.229
0.00365174	38.3395
0.00367282	38.4503
0.00369403	38.5614
0.00371535	38.6728
0.0037368	38.7846
0.00375837	38.8967
0.00378007	39.0091
0.00380189	39.1218
0.00382384	39.2349
0.00384592	39.3483
0.00386812	39.462
0.00389045	39.576
0.00391291	39.6904
0.0039355	39.8051
0.00395822	39.9201
0.00398107	40.0354
0.00400405	40.1511
0.00402717	40.2672
0.00405042	40.4847
0.0040738	40.6014
0.00409732	40.7184
0.00412098	40.8358
0.00414477	40.9535
0.00416869	41.0715
0.00419276	41.1899
0.00421697	41.3086
0.00424131	41.4277
0.0042658	41.5471
0.00429042	41.6669
0.00431519	41.787
0.0043401	41.9074
0.00436516	42.0282
0.00439036	42.1493
0.0044157	42.2708
0.0044412	42.3927
0.00446684	42.5149
0.00449262	42.6374
0.00451856	42.7603
0.00454465	42.8835
0.00457088	43.0072
0.00459727	43.1311
0.00462381	43.2554
0.0046505	43.3801
0.00467735	43.5052
0.00470435	43.6305
0.00473151	43.7563
0.00475883	43.8824
0.0047863	44.0089
0.00481393	44.1358
0.00484172	44.263
0.00486968	44.3906
0.00489779	44.5185
0.00492606	44.6468
0.0049545	44.7755
0.0049831	44.9046
0.00501187	45.034
0.00504081	45.1638
0.00506991	45.294
0.00509918	45.4246
0.00512861	45.5555
0.00515822	45.6868
0.005188	45.8185
0.00521795	45.9505
0.00524807	46.083
0.00527837	46.2158
0.00530884	46.349
0.00533949	46.4826
0.00537032	46.6166
0.00540132	46.751
0.0054325	46.8857
0.00546387	47.0209
0.00549541	47.1564
0.00552713	47.2923
0.00555904	47.4286
0.00559114	47.5653
0.00562341	47.7024
0.00565588	47.8399
0.00568853	47.9778
0.00572137	48.1161
0.0057544	48.2548
0.00578762	48.3939
0.00582103	48.5334
0.00585464	48.6733
0.00588844	48.8136
0.00592243	48.9543
0.00595662	49.0954
0.00599101	49.2369
0.0060256	49.3788
0.00606038	49.5211
0.00609537	49.6639
0.00613056	49.807
0.00616595	49.9506
0.00620155	50.0946
0.00623735	50.239
0.00627336	50.3838
0.00630957	50.529
0.006346	50.6746
0.00638263	50.8207
0.00641948	50.9672
0.00645654	51.1141
0.00649382	51.2614
0.00653131	51.4092
0.00656901	51.5574
0.00660693	51.706
0.00664508	51.855
0.00668344	52.0045
0.00672202	52.1544
0.00676083	52.3047
0.00679986	52.4555
0.00683912	52.6067
0.0068786	52.7583
0.00691831	52.9104
0.00695825	53.0629
0.00699842	53.2158
0.00703882	53.3692
0.00707946	53.523
0.00712033	53.6773
0.00716143	53.832
0.00720278	53.9872
0.00724436	54.1428
0.00728618	54.2989
0.00732825	54.4554
0.00737055	54.6123
0.0074131	54.7697
0.0074559	54.9276
0.00749894	55.0859
0.00754223	55.2447
0.00758578	55.4039
0.00762957	55.5636
0.00767361	55.7238
0.00771792	55.8844
0.00776247	56.0455
0.00780728	56.207
0.00785236	56.369
0.00789769	56.5315
0.00794328	56.6945
0.00798914	56.8579
0.00803526	57.0218
0.00808165	57.1861
0.00812831	57.351
0.00817523	57.5163
0.00822243	57.682
0.0082699	57.8483
0.00831764	58.0151
0.00836566	58.1823
0.00841395	58.35
0.00846253	58.5182
0.00851138	58.6868
0.00856052	58.856
0.00860994	59.0256
0.00865964	59.1958
0.00870964	59.3664
0.00875992	59.5375
0.00881049	59.7091
0.00886135	59.8812
0.00891251	60.0538
0.00896396	60.2269
0.00901571	60.4005
0.00906776	60.5746
0.00912011	60.7492
0.00917276	60.9243
0.00922571	61.0999
0.00927897	61.276
0.00933254	61.4527
0.00938642	61.6298
0.00944061	61.8074
0.00949511	61.9856
0.00954993	62.1642
0.00960506	62.3434
0.00966051	62.5231
0.00971628	62.7033
0.00977237	62.8841
0.00982879	63.0653
0.00988553	63.2471
0.0099426	63.4294
0.01	63.6122
0.0100577	63.7956
0.0101158	63.9795
0.0101742	64.1639
0.0102329	64.3488
0.010292	64.5343
0.0103514	64.7203
0.0104112	64.9069
0.0104713	65.094
0.0105317	65.2816
0.0105925	65.4697
0.0106537	65.6585
0.0107152	65.8477
0.0107771	66.0375
0.0108393	66.2279
0.0109018	66.4187
0.0109648	66.6102
0.0110281	66.8022
0.0110917	66.9947
0.0111558	67.1878
0.0112202	67.3815
0.011285	67.5757
0.0113501	67.7705
0.0114156	67.9658
0.0114815	68.1617
0.0115478	68.3582
0.0116145	68.5552
0.0116815	68.7528
0.011749	68.951
0.0118168	69.1498
0.011885	69.3491
0.0119536	69.549
0.0120226	69.7494
0.0120921	69.9505
0.0121619	70.1521
0.0122321	70.3543
0.0123027	70.5571
0.0123737	70.7605
0.0124451	70.9644
0.012517	71.169
0.0125893	71.3741
0.0126619	71.5798
0.012735	71.7862
0.0128086	71.9931
0.0128825	72.2006
0.0129569	72.4087
0.0130317	72.6174
0.0131069	72.8267
0.0131826	73.0366
0.0132587	73.2471
0.0133352	73.4583
0.0134122	73.67
0.0134896	73.8823
0.0135675	74.0953
0.0136458	74.3089
0.0137246	74.5231
0.0138038	74.7379
0.0138835	74.9533
0.0139637	75.1693
0.0140443	75.386
0.0141254	75.6033
0.0142069	75.8212
0.0142889	76.0397
0.0143714	76.2589
0.0144544	76.4787
0.0145378	76.6992
0.0146218	76.9202
0.0147062	77.142
0.0147911	77.3643
0.0148765	77.5873
0.0149624	77.8109
0.0150487	78.0352
0.0151356	78.2601
0.015223	78.4857
0.0153109	78.712
0.0153993	78.9388
0.0154882	79.1664
0.0155776	79.3945
0.0156675	79.6234
0.015758	79.8529
0.0158489	80.0831
0.0159404	80.3139
0.0160325	80.5454
0.016125	80.7775
0.0162181	81.0104
0.0163117	81.2439
0.0164059	81.4781
0.0165006	81.7129
0.0165959	81.9484
0.0166917	82.1846
0.016788	82.4215
0.016885	82.6591
0.0169824	82.8974
0.0170805	83.1363
0.0171791	83.3759
0.0172783	83.6162
0.017378	83.8573
0.0174783	84.099
0.0175792	84.3414
0.0176807	84.5845
0.0177828	84.8283
0.0178855	85.0728
0.0179887	85.318
0.0180926	85.5639
0.018197	85.8105
0.0183021	86.0579
0.0184077	86.3059
0.018514	86.5547
0.0186209	86.8042
0.0187284	87.0544
0.0188365	87.3053
0.0189452	87.557
0.0190546	87.8093
0.0191646	88.0624
0.0192752	88.3163
0.0193865	88.5708
0.0194984	88.8261
0.019611	89.0821
0.0197242	89.3389
0.0198381	89.5964
0.0199526	89.8547
0.0200678	90.1137
0.0201837	90.3734
0.0203002	90.6339
0.0204174	90.8951
0.0205353	91.1571
0.0206538	91.4199
0.020773	91.6834
0.020893	91.9477
0.0210136	92.2127
0.0211349	92.4785
0.0212569	92.745
0.0213796	93.0124
0.021503	93.2805
0.0216272	93.5493
0.021752	93.819
0.0218776	94.0894
0.0220039	94.3606
0.0221309	94.6326
0.0222587	94.9053
0.0223872	95.1789
0.0225165	95.4532
0.0226464	95.7284
0.0227772	96.0043
0.0229087	96.281
0.0230409	96.5585
0.0231739	96.8369
0.0233077	97.116
0.0234423	97.3959
0.0235776	97.6766
0.0237137	97.9582
0.0238506	98.2405
0.0239883	98.5237
0.0241268	98.8077
0.0242661	99.0925
0.0244062	99.3781
0.0245471	99.6645
0.0246888	99.9518
0.0248313	100.24
0.0249747	100.529
0.0251189	100.819
0.0252639	101.109
0.0254097	101.401
0.0255564	101.693
0.025704	101.986
0.0258523	102.28
0.0260016	102.575
0.0261517	102.87
0.0263027	103.167
0.0264545	103.464
0.0266073	103.763
0.0267609	104.062
0.0269153	104.362
0.0270707	104.662
0.027227	104.964
0.0273842	105.267
0.0275423	105.57
0.0277013	105.874
0.0278612	106.179
0.0280221	106.486
0.0281838	106.792
0.0283465	107.1
0.0285102	107.409
0.0286748	107.719
0.0288403	108.029
0.0290068	108.34
0.0291743	108.653
0.0293427	108.966
0.0295121	109.28
0.0296825	109.595
0.0298538	109.911
0.0300262	110.228
0.0301995	110.545
0.0303739	110.864
0.0305492	111.184
0.0307256	111.504
0.030903	111.825
0.0310814	112.148
0.0312608	112.471
0.0314413	112.795
0.0316228	113.12
0.0318053	113.446
0.031989	113.773
0.0321736	114.101
0.0323594	114.43
0.0325462	114.76
0.0327341	115.091
0.032923	115.423
0.0331131	115.755
0.0333043	116.089
0.0334965	116.424
0.0336899	116.759
0.0338844	117.096
0.03408	117.433
0.0342768	117.772
0.0344747	118.111
0.0346737	118.452
0.0348739	118.793
0.0350752	119.135
0.0352777	119.479
0.0354813	119.823
0.0356862	120.169
0.0358922	120.515
0.0360994	120.862
0.0363078	121.211
0.0365174	121.56
0.0367282	121.91
0.0369403	122.262
0.0371535	122.614
0.037368	122.968
0.0375837	123.322
0.0378007	123.677
0.0380189	124.034
0.0382384	124.391
0.0384592	124.75
0.0386812	125.11
0.0389045	125.47
0.0391291	125.832
0.039355	126.195
0.0395822	126.558
0.0398107	126.923
0.0400405	127.289
0.0402717	127.656
0.0405042	128.024
0.040738	128.393
0.0409732	128.763
0.0412098	129.134
0.0414477	129.506
0.0416869	129.88
0.0419276	130.254
0.0421697	130.629
0.0424131	131.006
0.042658	131.383
0.0429042	131.762
0.0431519	132.142
0.043401	132.523
0.0436516	132.905
0.0439036	133.288
0.044157	133.672
0.044412	134.057
0.0446684	134.444
0.0449262	134.831
0.0451856	135.22
0.0454465	135.61
0.0457088	136.001
0.0459727	136.393
0.0462381	136.786
0.046505	137.18
0.0467735	137.575
0.0470435	137.972
0.0473151	138.37
0.0475883	138.768
0.047863	139.168
0.0481393	139.57
0.0484172	139.972
0.0486968	140.375
0.0489779	140.78
0.0492606	141.186
0.049545	141.593
0.049831	142.001
0.0501187	142.41
0.0504081	142.821
0.0506991	143.232
0.0509918	143.645
0.0512861	144.059
0.0515822	144.474
0.05188	144.891
0.0521795	145.308
0.0524807	145.727
0.0527837	146.147
0.0530884	146.569
0.0533949	146.991
0.0537032	147.415
0.0540132	147.84
0.054325	148.266
0.0546387	148.693
0.0549541	149.122
0.0552713	149.551
0.0555904	149.983
0.0559114	150.415
0.0562341	150.848
0.0565588	151.283
0.0568853	151.719
0.0572137	152.157
0.057544	152.595
0.0578762	153.035
0.0582103	153.476
0.0585464	153.918
0.0588844	154.362
0.0592243	154.807
0.0595662	155.253
0.0599101	155.701
0.060256	156.15
0.0606038	156.6
0.0609537	157.051
0.0613056	157.504
0.0616595	157.958
0.0620155	158.413
0.0623735	158.87
0.0627336	159.327
0.0630957	159.787
0.06346	160.247
0.0638263	160.709
0.0641948	161.172
0.0645654	161.637
0.0649382	162.103
0.0653131	162.57
0.0656901	163.039
0.0660693	163.509
0.0664508	163.98
0.0668344	164.453
0.0672202	164.927
0.0676083	165.402
0.0679986	165.879
0.0683912	166.357
0.068786	166.836
0.0691831	167.317
0.0695825	167.8
0.0699842	168.283
0.0703882	168.768
0.0707946	169.255
0.0712033	169.743
0.0716143	170.232
0.0720278	170.722
0.0724436	171.215
0.0728618	171.708
0.0732825	172.203
0.0737055	172.699
0.074131	173.197
0.074559	173.696
0.0749894	174.197
0.0754223	174.699
0.0758578	175.203
0.0762957	175.708
0.0767361	176.214
0.0771792	176.722
0.0776247	177.231
0.0780728	177.742
0.0785236	178.255
0.0789769	178.768
0.0794328	179.284
0.0798914	179.8
0.0803526	180.319
0.0808165	180.838
0.0812831	181.36
0.0817523	181.882
0.0822243	182.407
0.082699	182.932
0.0831764	183.46
0.0836566	183.988
0.0841395	184.519
0.0846253	185.051
0.0851138	185.584
0.0856052	186.119
0.0860994	186.655
0.0865964	187.193
0.0870964	187.733
0.0875992	188.274
0.0881049	188.817
0.0886135	189.361
0.0891251	189.907
0.0896396	190.454
0.0901571	191.003
0.0906776	191.554
0.0912011	192.106
0.0917276	192.66
0.0922571	193.215
0.0927897	193.772
0.0933254	194.33
0.0938642	194.891
0.0944061	195.452
0.0949511	196.016
0.0954993	196.581
0.0960506	197.147
0.0966051	197.715
0.0971628	198.285
0.0977237	198.857
0.0982879	199.43
0.0988553	200.005
0.099426	200.581
0.1	201.16
0.100577	201.739
0.101158	202.321
0.101742	202.904
0.102329	203.489
0.10292	204.075
0.103514	204.664
0.104112	205.254
0.104713	205.845
0.105317	206.438
0.105925	207.034
0.106537	207.63
0.107152	208.229
0.107771	208.829
0.108393	209.431
0.109018	210.035
0.109648	210.64
0.110281	211.247
0.110917	211.856
0.111558	212.467
0.112202	213.079
0.11285	213.693
0.113501	214.309
0.114156	214.927
0.114815	215.546
0.115478	216.168
0.116145	216.791
0.116815	217.416
0.11749	218.042
0.118168	218.671
0.11885	219.301
0.119536	219.933
0.120226	220.567
0.120921	221.203
0.121619	221.84
0.122321	222.48
0.123027	223.121
0.123737	223.764
0.124451	224.409
0.12517	225.056
0.125893	225.705
0.126619	226.355
0.12735	227.008
0.128086	227.662
0.128825	228.318
0.129569	228.976
0.130317	229.636
0.131069	230.298
0.131826	230.962
0.132587	231.628
0.133352	232.295
0.134122	232.965
0.134896	233.636
0.135675	234.31
0.136458	234.985
0.137246	235.663
0.138038	236.342
0.138835	237.023
0.139637	237.706
0.140443	238.391
0.141254	239.079
0.142069	239.768
0.142889	240.459
0.143714	241.152
0.144544	241.847
0.145378	242.544
0.146218	243.243
0.147062	243.944
0.147911	244.647
0.148765	245.353
0.149624	246.06
0.150487	246.769
0.151356	247.48
0.15223	248.194
0.153109	248.909
0.153993	249.626
0.154882	250.346
0.155776	251.068
0.156675	251.791
0.15758	252.517
0.158489	253.245
0.159404	253.975
0.160325	254.707
0.16125	255.441
0.162181	256.177
0.163117	256.916
0.164059	257.656
0.165006	258.399
0.165959	259.144
0.166917	259.891
0.16788	260.64
0.16885	261.391
0.169824	262.144
0.170805	262.9
0.171791	263.658
0.172783	264.418
0.17378	265.18
0.174783	265.944
0.175792	266.601
0.176807	267.23
0.177828	267.862
0.178855	268.497
0.179887	269.135
0.180926	269.776
0.18197	270.42
0.183021	271.067
0.184077	271.717
0.18514	272.369
0.186209	273.025
0.187284	273.684
0.188365	274.345
0.189452	275.01
0.190546	275.677
0.191646	276.347
0.192752	277.02
0.193865	277.696
0.194984	278.375
0.19611	279.057
0.197242	279.741
0.198381	280.429
0.199526	281.119
0.200678	281.812
0.201837	282.507
0.203002	283.206
0.204174	283.907
0.205353	284.611
0.206538	285.318
0.20773	286.027
0.20893	286.74
0.210136	287.446
0.211349	288.091
0.212569	288.739
0.213796	289.388
0.21503	290.04
0.216272	290.694
0.21752	291.35
0.218776	292.008
0.220039	292.668
0.221309	293.33
0.222587	293.994
0.223872	294.66
0.225165	295.327
0.226464	295.997
0.227772	296.669
0.229087	297.342
0.230409	298.017
0.231739	298.694
0.233077	299.373
0.234423	300.053
0.235776	300.735
0.237137	301.418
0.238506	302.103
0.239883	302.79
0.241268	303.477
0.242661	304.166
0.244062	304.857
0.245471	305.549
0.246888	306.241
0.248313	306.936
0.249747	307.631
0.251189	308.327
0.252639	309.024
0.254097	309.722
0.255564	310.421
0.25704	311.12
0.258523	311.821
0.260016	312.522
0.261517	313.223
0.263027	313.925
0.264545	314.628
0.266073	315.33
0.267609	316.033
0.269153	316.736
0.270707	317.44
0.27227	318.143
0.273842	318.846
0.275423	319.549
0.277013	320.252
0.278612	320.954
0.280221	321.653
0.281838	322.335
0.283465	323.016
0.285102	323.696
0.286748	324.376
0.288403	325.055
0.290068	325.733
0.291743	326.41
0.293427	327.086
0.295121	327.762
0.296825	328.436
0.298538	329.11
0.300262	329.782
0.301995	330.454
0.303739	331.124
0.305492	331.793
0.307256	332.461
0.30903	333.128
0.310814	333.794
0.312608	334.459
0.314413	335.122
0.316228	335.784
0.318053	336.445
0.31989	337.105
0.321736	337.763
0.323594	338.42
0.325462	339.075
0.327341	339.729
0.32923	340.382
0.331131	341.033
0.333043	341.682
0.334965	342.33
0.336899	342.977
0.338844	343.622
0.3408	344.265
0.342768	344.907
0.344747	345.547
0.346737	346.185
0.348739	346.822
0.350752	347.457
0.352777	348.089
0.354813	348.72
0.356862	349.349
0.358922	349.976
0.360994	350.601
0.363078	351.225
0.365174	351.846
0.367282	352.466
0.369403	353.083
0.371535	353.698
0.37368	354.312
0.375837	354.923
0.378007	355.532
0.380189	356.139
0.382384	356.744
0.384592	357.346
0.386812	357.946
0.389045	358.544
0.391291	359.139
0.39355	359.733
0.395822	360.323
0.398107	360.912
0.400405	361.497
0.402717	362.081
0.405042	362.662
0.40738	363.24
0.409732	363.816
0.412098	364.389
0.414477	364.959
0.416869	365.527
0.419276	366.093
0.421697	366.655
0.424131	367.215
0.42658	367.772
0.429042	368.326
0.431519	368.877
0.43401	369.425
0.436516	369.971
0.439036	370.513
0.44157	371.052
0.44412	371.588
0.446684	372.12
0.449262	372.65
0.451856	373.176
0.454465	373.698
0.457088	374.217
0.459727	374.733
0.462381	375.245
0.46505	375.753
0.467735	376.258
0.470435	376.758
0.473151	377.255
0.475883	377.748
0.47863	378.238
0.481393	378.723
0.484172	379.204
0.486968	379.681
0.489779	380.154
0.492606	380.622
0.49545	381.087
0.49831	381.547
0.501187	382.003
0.504081	382.454
0.506991	382.901
0.509918	383.345
0.512861	383.784
0.515822	384.218
0.5188	384.649
0.521795	385.075
0.524807	385.498
0.527837	385.916
0.530884	386.33
0.533949	386.74
0.537032	387.146
0.540132	387.548
0.54325	387.946
0.546387	388.34
0.549541	388.731
0.552713	389.117
0.555904	389.5
0.559114	389.879
0.562341	390.254
0.565588	390.626
0.568853	390.994
0.572137	391.358
0.57544	391.718
0.578762	392.074
0.582103	392.426
0.585464	392.773
0.588844	393.116
0.592243	393.455
0.595662	393.789
0.599101	394.118
0.60256	394.442
0.606038	394.761
0.609537	395.075
0.613056	395.384
