Stopping power dEdx from Ionisation for Li7[0.0] Z = 3 in G4_Si, process name: ionIoni
E [MeV]	dEdx [MeV/mm]
0.001	26.9653
0.00100577	27.0435
0.00101158	27.122
0.00101742	27.2007
0.00102329	27.2797
0.0010292	27.3588
0.00103514	27.4382
0.00104112	27.5178
0.00104713	27.5977
0.00105317	27.6778
0.00105925	27.7581
0.00106537	27.8386
0.00107152	27.9194
0.00107771	28.0004
0.00108393	28.0816
0.00109018	28.1631
0.00109648	28.2448
0.00110281	28.3267
0.00110917	28.4089
0.00111558	28.4913
0.00112202	28.574
0.0011285	28.6569
0.00113501	28.74
0.00114156	28.8234
0.00114815	28.907
0.00115478	28.9908
0.00116145	29.0749
0.00116815	29.1593
0.0011749	29.2439
0.00118168	29.3287
0.0011885	29.4137
0.00119536	29.4991
0.00120226	29.5846
0.00120921	29.6704
0.00121619	29.7565
0.00122321	29.8428
0.00123027	29.9293
0.00123737	30.0161
0.00124451	30.1032
0.0012517	30.1905
0.00125893	30.278
0.00126619	30.3658
0.0012735	30.4539
0.00128086	30.5422
0.00128825	30.6308
0.00129569	30.7196
0.00130317	30.8087
0.00131069	30.898
0.00131826	30.9876
0.00132587	31.0774
0.00133352	31.1675
0.00134122	31.2579
0.00134896	31.3485
0.00135675	31.4394
0.00136458	31.5306
0.00137246	31.622
0.00138038	31.7137
0.00138835	31.8056
0.00139637	31.8978
0.00140443	31.9903
0.00141254	32.083
0.00142069	32.176
0.00142889	32.2693
0.00143714	32.3629
0.00144544	32.4567
0.00145378	32.5508
0.00146218	32.6451
0.00147062	32.7397
0.00147911	32.8346
0.00148765	32.9298
0.00149624	33.0253
0.00150487	33.121
0.00151356	33.217
0.0015223	33.3132
0.00153109	33.4098
0.00153993	33.5066
0.00154882	33.6037
0.00155776	33.7011
0.00156675	33.7988
0.0015758	33.8968
0.00158489	33.995
0.00159404	34.0935
0.00160325	34.1923
0.0016125	34.2914
0.00162181	34.3908
0.00163117	34.4904
0.00164059	34.5904
0.00165006	34.6906
0.00165959	34.7911
0.00166917	34.8919
0.0016788	34.993
0.0016885	35.0944
0.00169824	35.1961
0.00170805	35.2981
0.00171791	35.4004
0.00172783	35.5029
0.0017378	35.6058
0.00174783	35.709
0.00175792	35.8124
0.00176807	35.9162
0.00177828	36.0202
0.00178855	36.1246
0.00179887	36.2292
0.00180926	36.3342
0.0018197	36.4395
0.00183021	36.545
0.00184077	36.6509
0.0018514	36.7571
0.00186209	36.8635
0.00187284	36.9703
0.00188365	37.0774
0.00189452	37.1848
0.00190546	37.2925
0.00191646	37.4006
0.00192752	37.5089
0.00193865	37.6175
0.00194984	37.7265
0.0019611	37.8358
0.00197242	37.9454
0.00198381	38.0553
0.00199526	38.1655
0.00200678	38.276
0.00201837	38.3869
0.00203002	38.4981
0.00204174	38.6096
0.00205353	38.7214
0.00206538	38.8335
0.0020773	38.946
0.0020893	39.0588
0.00210136	39.1719
0.00211349	39.2853
0.00212569	39.3991
0.00213796	39.5132
0.0021503	39.6276
0.00216272	39.7424
0.0021752	39.8574
0.00218776	39.9729
0.00220039	40.0886
0.00221309	40.2047
0.00222587	40.3211
0.00223872	40.4379
0.00225165	40.5549
0.00226464	40.6724
0.00227772	40.7901
0.00229087	40.9082
0.00230409	41.0267
0.00231739	41.1455
0.00233077	41.2646
0.00234423	41.3841
0.00235776	41.5039
0.00237137	41.624
0.00238506	41.7445
0.00239883	41.8654
0.00241268	41.9866
0.00242661	42.1082
0.00244062	42.2301
0.00245471	42.3523
0.00246888	42.4749
0.00248313	42.5979
0.00249747	42.7212
0.00251189	42.8449
0.00252639	42.9689
0.00254097	43.0933
0.00255564	43.218
0.0025704	43.3431
0.00258523	43.4686
0.00260016	43.5944
0.00261517	43.7206
0.00263027	43.8471
0.00264545	43.9741
0.00266073	44.1013
0.00267609	44.229
0.00269153	44.357
0.00270707	44.4854
0.0027227	44.6141
0.00273842	44.7433
0.00275423	44.8728
0.00277013	45.0026
0.00278612	45.1329
0.00280221	45.2635
0.00281838	45.3945
0.00283465	45.5259
0.00285102	45.6576
0.00286748	45.7898
0.00288403	45.9223
0.00290068	46.0552
0.00291743	46.1885
0.00293427	46.3221
0.00295121	46.4562
0.00296825	46.5906
0.00298538	46.7254
0.00300262	46.8606
0.00301995	46.9962
0.00303739	47.1322
0.00305492	47.2686
0.00307256	47.4054
0.0030903	47.5426
0.00310814	47.6801
0.00312608	47.8181
0.00314413	47.9565
0.00316228	48.0952
0.00318053	48.2344
0.0031989	48.3739
0.00321736	48.5139
0.00323594	48.6543
0.00325462	48.795
0.00327341	48.9362
0.0032923	49.0778
0.00331131	49.2198
0.00333043	49.3622
0.00334965	49.505
0.00336899	49.6482
0.00338844	49.7919
0.003408	49.9359
0.00342768	50.0804
0.00344747	50.2253
0.00346737	50.3706
0.00348739	50.5163
0.00350752	50.6624
0.00352777	50.809
0.00354813	50.956
0.00356862	51.1034
0.00358922	51.2512
0.00360994	51.3994
0.00363078	51.5481
0.00365174	51.6972
0.00367282	51.8468
0.00369403	51.9968
0.00371535	52.1472
0.0037368	52.298
0.00375837	52.4493
0.00378007	52.601
0.00380189	52.7531
0.00382384	52.9057
0.00384592	53.0587
0.00386812	53.2122
0.00389045	53.3661
0.00391291	53.5205
0.0039355	53.6753
0.00395822	53.8305
0.00398107	53.9862
0.00400405	54.1423
0.00402717	54.2989
0.00405042	54.456
0.0040738	54.6135
0.00409732	54.7714
0.00412098	54.9298
0.00414477	55.0887
0.00416869	55.248
0.00419276	55.4078
0.00421697	55.568
0.00424131	55.7287
0.0042658	55.8899
0.00429042	56.0515
0.00431519	56.2136
0.0043401	56.3762
0.00436516	56.5392
0.00439036	56.7027
0.0044157	56.8666
0.0044412	57.0311
0.00446684	57.196
0.00449262	57.3614
0.00451856	57.5273
0.00454465	57.6936
0.00457088	57.8604
0.00459727	58.0277
0.00462381	58.1955
0.0046505	58.3638
0.00467735	58.5326
0.00470435	58.7018
0.00473151	58.8715
0.00475883	59.0418
0.0047863	59.2125
0.00481393	59.3837
0.00484172	59.5554
0.00486968	59.7276
0.00489779	59.9003
0.00492606	60.0734
0.0049545	60.2471
0.0049831	60.4213
0.00501187	60.596
0.00504081	60.7712
0.00506991	60.9469
0.00509918	61.1231
0.00512861	61.2998
0.00515822	61.477
0.005188	61.6548
0.00521795	61.833
0.00524807	62.0118
0.00527837	62.191
0.00530884	62.3708
0.00533949	62.5511
0.00537032	62.732
0.00540132	62.9133
0.0054325	63.0952
0.00546387	63.2776
0.00549541	63.4605
0.00552713	63.6439
0.00555904	63.8279
0.00559114	64.0124
0.00562341	64.1975
0.00565588	64.383
0.00568853	64.5691
0.00572137	64.7558
0.0057544	64.943
0.00578762	65.1307
0.00582103	65.3189
0.00585464	65.5078
0.00588844	65.6971
0.00592243	65.887
0.00595662	66.0774
0.00599101	66.2684
0.0060256	66.46
0.00606038	66.6521
0.00609537	66.8447
0.00613056	67.0379
0.00616595	67.2317
0.00620155	67.426
0.00623735	67.6209
0.00627336	67.8163
0.00630957	68.0123
0.006346	68.2089
0.00638263	68.406
0.00641948	68.6037
0.00645654	68.802
0.00649382	69.0008
0.00653131	69.2003
0.00656901	69.4003
0.00660693	69.6008
0.00664508	69.802
0.00668344	70.0037
0.00672202	70.206
0.00676083	70.4089
0.00679986	70.6124
0.00683912	70.8164
0.0068786	71.0211
0.00691831	71.2263
0.00695825	71.4322
0.00699842	71.6386
0.00703882	71.8456
0.00707946	72.0532
0.00712033	72.2614
0.00716143	72.4703
0.00720278	72.6797
0.00724436	72.8897
0.00728618	73.1003
0.00732825	73.3116
0.00737055	73.5234
0.0074131	73.9201
0.0074559	74.1332
0.00749894	74.3469
0.00754223	74.5612
0.00758578	74.7761
0.00762957	74.9916
0.00767361	75.2078
0.00771792	75.4245
0.00776247	75.6419
0.00780728	75.86
0.00785236	76.0786
0.00789769	76.2979
0.00794328	76.5178
0.00798914	76.7384
0.00803526	76.9596
0.00808165	77.1814
0.00812831	77.4039
0.00817523	77.627
0.00822243	77.8507
0.0082699	78.0751
0.00831764	78.3002
0.00836566	78.5259
0.00841395	78.7522
0.00846253	78.9792
0.00851138	79.2068
0.00856052	79.4351
0.00860994	79.6641
0.00865964	79.8937
0.00870964	80.124
0.00875992	80.355
0.00881049	80.5866
0.00886135	80.8189
0.00891251	81.0518
0.00896396	81.2854
0.00901571	81.5197
0.00906776	81.7547
0.00912011	81.9903
0.00917276	82.2267
0.00922571	82.4637
0.00927897	82.7014
0.00933254	82.9397
0.00938642	83.1788
0.00944061	83.4186
0.00949511	83.659
0.00954993	83.9001
0.00960506	84.142
0.00966051	84.3845
0.00971628	84.6277
0.00977237	84.8717
0.00982879	85.1163
0.00988553	85.3616
0.0099426	85.6077
0.01	85.8544
0.0100577	86.1019
0.0101158	86.3501
0.0101742	86.599
0.0102329	86.8486
0.010292	87.0989
0.0103514	87.35
0.0104112	87.6017
0.0104713	87.8542
0.0105317	88.1075
0.0105925	88.3614
0.0106537	88.6161
0.0107152	88.8715
0.0107771	89.1277
0.0108393	89.3846
0.0109018	89.6422
0.0109648	89.9006
0.0110281	90.1597
0.0110917	90.4196
0.0111558	90.6802
0.0112202	90.9416
0.011285	91.2037
0.0113501	91.4666
0.0114156	91.7303
0.0114815	91.9947
0.0115478	92.2598
0.0116145	92.5258
0.0116815	92.7925
0.011749	93.0599
0.0118168	93.3282
0.011885	93.5972
0.0119536	93.8669
0.0120226	94.1375
0.0120921	94.4088
0.0121619	94.681
0.0122321	94.9539
0.0123027	95.2276
0.0123737	95.502
0.0124451	95.7773
0.012517	96.0534
0.0125893	96.3302
0.0126619	96.6079
0.012735	96.8864
0.0128086	97.1656
0.0128825	97.4457
0.0129569	97.7266
0.0130317	98.0083
0.0131069	98.2908
0.0131826	98.5741
0.0132587	98.8582
0.0133352	99.1431
0.0134122	99.4289
0.0134896	99.7155
0.0135675	100.003
0.0136458	100.291
0.0137246	100.58
0.0138038	100.87
0.0138835	101.161
0.0139637	101.452
0.0140443	101.745
0.0141254	102.038
0.0142069	102.332
0.0142889	102.627
0.0143714	102.923
0.0144544	103.22
0.0145378	103.517
0.0146218	103.816
0.0147062	104.115
0.0147911	104.415
0.0148765	104.716
0.0149624	105.018
0.0150487	105.32
0.0151356	105.624
0.015223	105.928
0.0153109	106.234
0.0153993	106.54
0.0154882	106.847
0.0155776	107.155
0.0156675	107.464
0.015758	107.774
0.0158489	108.084
0.0159404	108.396
0.0160325	108.708
0.016125	109.022
0.0162181	109.336
0.0163117	109.651
0.0164059	109.967
0.0165006	110.284
0.0165959	110.602
0.0166917	110.921
0.016788	111.24
0.016885	111.561
0.0169824	111.883
0.0170805	112.205
0.0171791	112.529
0.0172783	112.853
0.017378	113.178
0.0174783	113.504
0.0175792	113.832
0.0176807	114.16
0.0177828	114.489
0.0178855	114.819
0.0179887	115.15
0.0180926	115.482
0.018197	115.814
0.0183021	116.148
0.0184077	116.483
0.018514	116.819
0.0186209	117.155
0.0187284	117.493
0.0188365	117.832
0.0189452	118.171
0.0190546	118.512
0.0191646	118.854
0.0192752	119.196
0.0193865	119.54
0.0194984	119.884
0.019611	120.23
0.0197242	120.577
0.0198381	120.924
0.0199526	121.273
0.0200678	121.622
0.0201837	121.973
0.0203002	122.324
0.0204174	122.677
0.0205353	123.03
0.0206538	123.385
0.020773	123.741
0.020893	124.097
0.0210136	124.455
0.0211349	124.814
0.0212569	125.174
0.0213796	125.534
0.021503	125.896
0.0216272	126.259
0.021752	126.623
0.0218776	126.988
0.0220039	127.354
0.0221309	127.721
0.0222587	128.089
0.0223872	128.458
0.0225165	128.829
0.0226464	129.2
0.0227772	129.572
0.0229087	129.946
0.0230409	130.32
0.0231739	130.696
0.0233077	131.073
0.0234423	131.451
0.0235776	131.83
0.0237137	132.21
0.0238506	132.591
0.0239883	132.973
0.0241268	133.356
0.0242661	133.74
0.0244062	134.126
0.0245471	134.513
0.0246888	134.9
0.0248313	135.289
0.0249747	135.679
0.0251189	136.07
0.0252639	136.462
0.0254097	136.856
0.0255564	137.25
0.025704	137.646
0.0258523	138.042
0.0260016	138.44
0.0261517	138.839
0.0263027	139.24
0.0264545	139.641
0.0266073	140.043
0.0267609	140.447
0.0269153	140.852
0.0270707	141.258
0.027227	141.665
0.0273842	142.073
0.0275423	142.483
0.0277013	142.894
0.0278612	143.305
0.0280221	143.719
0.0281838	144.133
0.0283465	144.548
0.0285102	144.965
0.0286748	145.383
0.0288403	145.802
0.0290068	146.222
0.0291743	146.643
0.0293427	147.066
0.0295121	147.49
0.0296825	147.915
0.0298538	148.342
0.0300262	148.769
0.0301995	149.198
0.0303739	149.628
0.0305492	150.059
0.0307256	150.492
0.030903	150.926
0.0310814	151.361
0.0312608	151.797
0.0314413	152.234
0.0316228	152.673
0.0318053	153.113
0.031989	153.555
0.0321736	153.997
0.0323594	154.441
0.0325462	154.886
0.0327341	155.333
0.032923	155.78
0.0331131	156.229
0.0333043	156.68
0.0334965	157.131
0.0336899	157.584
0.0338844	158.038
0.03408	158.494
0.0342768	158.951
0.0344747	159.409
0.0346737	159.868
0.0348739	160.329
0.0350752	160.791
0.0352777	161.255
0.0354813	161.72
0.0356862	162.186
0.0358922	162.653
0.0360994	163.122
0.0363078	163.592
0.0365174	164.064
0.0367282	164.537
0.0369403	165.011
0.0371535	165.487
0.037368	165.964
0.0375837	166.442
0.0378007	166.922
0.0380189	167.403
0.0382384	167.885
0.0384592	168.369
0.0386812	168.855
0.0389045	169.341
0.0391291	169.829
0.039355	170.319
0.0395822	170.81
0.0398107	171.302
0.0400405	171.796
0.0402717	172.291
0.0405042	172.788
0.040738	173.286
0.0409732	173.785
0.0412098	174.286
0.0414477	174.788
0.0416869	175.292
0.0419276	175.797
0.0421697	176.304
0.0424131	176.812
0.042658	177.322
0.0429042	177.833
0.0431519	178.346
0.043401	178.86
0.0436516	179.375
0.0439036	179.892
0.044157	180.411
0.044412	180.931
0.0446684	181.452
0.0449262	181.975
0.0451856	182.5
0.0454465	183.026
0.0457088	183.554
0.0459727	184.083
0.0462381	184.613
0.046505	185.145
0.0467735	185.679
0.0470435	186.214
0.0473151	186.751
0.0475883	187.289
0.047863	187.829
0.0481393	188.37
0.0484172	188.913
0.0486968	189.458
0.0489779	190.004
0.0492606	190.552
0.049545	191.101
0.049831	191.652
0.0501187	192.204
0.0504081	192.758
0.0506991	193.314
0.0509918	193.871
0.0512861	194.43
0.0515822	194.99
0.05188	195.552
0.0521795	196.116
0.0524807	196.681
0.0527837	197.248
0.0530884	197.817
0.0533949	198.387
0.0537032	198.959
0.0540132	199.532
0.054325	200.107
0.0546387	200.684
0.0549541	201.262
0.0552713	201.843
0.0555904	202.424
0.0559114	203.008
0.0562341	203.593
0.0565588	204.18
0.0568853	204.768
0.0572137	205.358
0.057544	205.95
0.0578762	206.544
0.0582103	207.139
0.0585464	207.736
0.0588844	208.335
0.0592243	208.936
0.0595662	209.538
0.0599101	210.142
0.060256	210.748
0.0606038	211.355
0.0609537	211.964
0.0613056	212.575
0.0616595	213.188
0.0620155	213.802
0.0623735	214.419
0.0627336	215.037
0.0630957	215.657
0.06346	216.278
0.0638263	216.902
0.0641948	217.527
0.0645654	218.154
0.0649382	218.783
0.0653131	219.413
0.0656901	220.046
0.0660693	220.68
0.0664508	221.316
0.0668344	221.954
0.0672202	222.594
0.0676083	223.235
0.0679986	223.879
0.0683912	224.524
0.068786	225.171
0.0691831	225.82
0.0695825	226.471
0.0699842	227.124
0.0703882	227.778
0.0707946	228.435
0.0712033	229.093
0.0716143	229.754
0.0720278	230.416
0.0724436	231.08
0.0728618	231.746
0.0732825	232.414
0.0737055	233.084
0.074131	233.756
0.074559	234.43
0.0749894	235.105
0.0754223	235.783
0.0758578	236.463
0.0762957	237.144
0.0767361	237.828
0.0771792	238.513
0.0776247	239.201
0.0780728	239.89
0.0785236	240.582
0.0789769	241.275
0.0794328	241.971
0.0798914	242.668
0.0803526	243.368
0.0808165	244.069
0.0812831	244.773
0.0817523	245.478
0.0822243	246.186
0.082699	246.895
0.0831764	247.607
0.0836566	248.321
0.0841395	249.036
0.0846253	249.754
0.0851138	250.474
0.0856052	251.196
0.0860994	251.92
0.0865964	252.646
0.0870964	253.374
0.0875992	254.105
0.0881049	254.837
0.0886135	255.572
0.0891251	256.308
0.0896396	257.047
0.0901571	257.788
0.0906776	258.531
0.0912011	259.276
0.0917276	260.024
0.0922571	260.773
0.0927897	261.525
0.0933254	262.278
0.0938642	263.034
0.0944061	263.793
0.0949511	264.553
0.0954993	265.316
0.0960506	266.08
0.0966051	266.847
0.0971628	267.616
0.0977237	268.388
0.0982879	269.161
0.0988553	269.937
0.099426	270.715
0.1	271.496
0.100577	272.278
0.101158	273.063
0.101742	273.85
0.102329	274.639
0.10292	275.431
0.103514	276.225
0.104112	277.021
0.104713	277.819
0.105317	278.62
0.105925	279.423
0.106537	280.229
0.107152	281.036
0.107771	281.847
0.108393	282.659
0.109018	283.474
0.109648	284.291
0.110281	285.11
0.110917	285.932
0.111558	286.756
0.112202	287.583
0.11285	288.412
0.113501	289.243
0.114156	290.077
0.114815	290.913
0.115478	291.751
0.116145	292.592
0.116815	293.436
0.11749	294.281
0.118168	295.13
0.11885	295.98
0.119536	296.833
0.120226	297.689
0.120921	298.547
0.121619	299.408
0.122321	300.271
0.123027	301.136
0.123737	302.004
0.124451	302.874
0.12517	303.747
0.125893	304.623
0.126619	305.501
0.12735	306.382
0.128086	307.265
0.128825	308.15
0.129569	309.039
0.130317	309.929
0.131069	310.823
0.131826	311.719
0.132587	312.617
0.133352	313.518
0.134122	314.422
0.134896	315.328
0.135675	316.237
0.136458	317.149
0.137246	318.063
0.138038	318.979
0.138835	319.899
0.139637	320.821
0.140443	321.746
0.141254	322.673
0.142069	323.603
0.142889	324.536
0.143714	325.471
0.144544	326.409
0.145378	327.35
0.146218	328.294
0.147062	329.24
0.147911	330.189
0.148765	331.141
0.149624	332.095
0.150487	333.052
0.151356	334.012
0.15223	334.975
0.153109	335.941
0.153993	336.909
0.154882	337.88
0.155776	338.854
0.156675	339.831
0.15758	340.81
0.158489	341.793
0.159404	342.778
0.160325	343.766
0.16125	344.757
0.162181	345.75
0.163117	346.747
0.164059	347.746
0.165006	348.749
0.165959	349.754
0.166917	350.762
0.16788	351.773
0.16885	352.787
0.169824	353.804
0.170805	354.824
0.171791	355.846
0.172783	356.872
0.17378	357.901
0.174783	358.932
0.175792	359.93
0.176807	360.921
0.177828	361.916
0.178855	362.915
0.179887	363.917
0.180926	364.923
0.18197	365.933
0.183021	366.946
0.184077	367.963
0.18514	368.984
0.186209	370.008
0.187284	371.035
0.188365	372.066
0.189452	373.101
0.190546	374.138
0.191646	375.18
0.192752	376.224
0.193865	377.272
0.194984	378.323
0.19611	379.378
0.197242	380.435
0.198381	381.496
0.199526	382.56
0.200678	383.627
0.201837	384.697
0.203002	385.77
0.204174	386.845
0.205353	387.924
0.206538	389.006
0.20773	390.09
0.20893	391.177
0.210136	392.247
0.211349	393.166
0.212569	394.086
0.213796	395.008
0.21503	395.931
0.216272	396.855
0.21752	397.781
0.218776	398.708
0.220039	399.636
0.221309	400.565
0.222587	401.495
0.223872	402.425
0.225165	403.357
0.226464	404.289
0.227772	405.222
0.229087	406.155
0.230409	407.089
0.231739	408.023
0.233077	408.957
0.234423	409.891
0.235776	410.826
0.237137	411.76
0.238506	412.694
0.239883	413.627
0.241268	414.56
0.242661	415.493
0.244062	416.425
0.245471	417.356
0.246888	418.286
0.248313	419.215
0.249747	420.143
0.251189	421.07
0.252639	421.995
0.254097	422.918
0.255564	423.84
0.25704	424.759
0.258523	425.677
0.260016	426.592
0.261517	427.505
0.263027	428.416
0.264545	429.323
0.266073	430.228
0.267609	431.13
0.269153	432.028
0.270707	432.923
0.27227	433.815
0.273842	434.702
0.275423	435.586
0.277013	436.465
0.278612	437.34
0.280221	438.204
0.281838	439.023
0.283465	439.837
0.285102	440.646
0.286748	441.449
0.288403	442.247
0.290068	443.041
0.291743	443.829
0.293427	444.611
0.295121	445.389
0.296825	446.161
0.298538	446.928
0.300262	447.69
0.301995	448.447
0.303739	449.199
0.305492	449.945
0.307256	450.687
0.30903	451.423
0.310814	452.154
0.312608	452.88
0.314413	453.6
0.316228	454.316
0.318053	455.027
0.31989	455.733
0.321736	456.434
0.323594	457.13
0.325462	457.821
0.327341	458.508
0.32923	459.189
0.331131	459.867
0.333043	460.539
0.334965	461.207
0.336899	461.871
0.338844	462.53
0.3408	463.186
0.342768	463.837
0.344747	464.484
0.346737	465.127
0.348739	465.767
0.350752	466.402
0.352777	467.032
0.354813	467.659
0.356862	468.282
0.358922	468.901
0.360994	469.517
0.363078	470.129
0.365174	470.737
0.367282	471.342
0.369403	471.942
0.371535	472.539
0.37368	473.132
0.375837	473.721
0.378007	474.307
0.380189	474.888
0.382384	475.466
0.384592	476.039
0.386812	476.609
0.389045	477.175
0.391291	477.737
0.39355	478.295
0.395822	478.849
0.398107	479.4
0.400405	479.946
0.402717	480.489
0.405042	481.027
0.40738	481.562
0.409732	482.093
0.412098	482.621
0.414477	483.144
0.416869	483.664
0.419276	484.18
0.421697	484.692
0.424131	485.2
0.42658	485.705
0.429042	486.206
0.431519	486.703
0.43401	487.197
0.436516	487.687
0.439036	488.173
0.44157	488.655
0.44412	489.133
0.446684	489.608
0.449262	490.079
0.451856	490.546
0.454465	491.01
0.457088	491.47
0.459727	491.926
0.462381	492.378
0.46505	492.826
0.467735	493.271
0.470435	493.713
0.473151	494.15
0.475883	494.585
0.47863	495.015
0.481393	495.442
0.484172	495.865
0.486968	496.285
0.489779	496.702
0.492606	497.115
0.49545	497.525
0.49831	497.931
0.501187	498.334
0.504081	498.734
0.506991	499.13
0.509918	499.523
0.512861	499.912
0.515822	500.298
0.5188	500.68
0.521795	501.058
0.524807	501.434
0.527837	501.805
0.530884	502.173
0.533949	502.538
0.537032	502.899
0.540132	503.257
0.54325	503.611
0.546387	503.962
0.549541	504.309
0.552713	504.652
0.555904	504.993
0.559114	505.329
0.562341	505.663
0.565588	505.993
0.568853	506.319
0.572137	506.642
0.57544	506.962
0.578762	507.278
0.582103	507.59
0.585464	507.899
0.588844	508.205
0.592243	508.507
0.595662	508.805
0.599101	509.1
0.60256	509.391
0.606038	509.679
0.609537	509.963
0.613056	510.244
0.616595	510.521
