Stopping power dEdx from Ionisation for Li7[0.0] Z = 3 in G4_TISSUE_SOFT_ICRP, process name: ionIoni
E [MeV]	dEdx [MeV/mm]
0.001	25.177
0.00100577	25.2495
0.00101158	25.3223
0.00101742	25.3953
0.00102329	25.4685
0.0010292	25.5419
0.00103514	25.6155
0.00104112	25.6894
0.00104713	25.7634
0.00105317	25.8377
0.00105925	25.9121
0.00106537	25.9868
0.00107152	26.0617
0.00107771	26.1368
0.00108393	26.2122
0.00109018	26.2877
0.00109648	26.3635
0.00110281	26.4395
0.00110917	26.5157
0.00111558	26.5921
0.00112202	26.6688
0.0011285	26.7457
0.00113501	26.8227
0.00114156	26.9001
0.00114815	26.9776
0.00115478	27.0554
0.00116145	27.1333
0.00116815	27.2115
0.0011749	27.29
0.00118168	27.3686
0.0011885	27.4475
0.00119536	27.5266
0.00120226	27.606
0.00120921	27.6856
0.00121619	27.7654
0.00122321	27.8454
0.00123027	27.9256
0.00123737	28.0061
0.00124451	28.0869
0.0012517	28.1678
0.00125893	28.249
0.00126619	28.3304
0.0012735	28.4121
0.00128086	28.494
0.00128825	28.5761
0.00129569	28.6585
0.00130317	28.7411
0.00131069	28.8239
0.00131826	28.907
0.00132587	28.9903
0.00133352	29.0739
0.00134122	29.1577
0.00134896	29.2417
0.00135675	29.326
0.00136458	29.4106
0.00137246	29.4953
0.00138038	29.5803
0.00138835	29.6656
0.00139637	29.7511
0.00140443	29.8369
0.00141254	29.9229
0.00142069	30.0091
0.00142889	30.0956
0.00143714	30.1824
0.00144544	30.2694
0.00145378	30.3566
0.00146218	30.4441
0.00147062	30.5319
0.00147911	30.6199
0.00148765	30.7081
0.00149624	30.7966
0.00150487	30.8854
0.00151356	30.9744
0.0015223	31.0637
0.00153109	31.1532
0.00153993	31.243
0.00154882	31.3331
0.00155776	31.4234
0.00156675	31.514
0.0015758	31.6048
0.00158489	31.6959
0.00159404	31.7873
0.00160325	31.8789
0.0016125	31.9708
0.00162181	32.0629
0.00163117	32.1553
0.00164059	32.248
0.00165006	32.341
0.00165959	32.4342
0.00166917	32.5277
0.0016788	32.6214
0.0016885	32.7155
0.00169824	32.8098
0.00170805	32.9043
0.00171791	32.9992
0.00172783	33.0943
0.0017378	33.1897
0.00174783	33.2854
0.00175792	33.3801
0.00176807	33.474
0.00177828	33.5682
0.00178855	33.6626
0.00179887	33.7573
0.00180926	33.8523
0.0018197	33.9475
0.00183021	34.0431
0.00184077	34.1389
0.0018514	34.2349
0.00186209	34.3313
0.00187284	34.4279
0.00188365	34.5248
0.00189452	34.622
0.00190546	34.7195
0.00191646	34.8172
0.00192752	34.9152
0.00193865	35.0135
0.00194984	35.1121
0.0019611	35.211
0.00197242	35.3102
0.00198381	35.4096
0.00199526	35.5093
0.00200678	35.6094
0.00201837	35.7097
0.00203002	35.8103
0.00204174	35.9112
0.00205353	36.0123
0.00206538	36.1138
0.0020773	36.2156
0.0020893	36.3176
0.00210136	36.42
0.00211349	36.5226
0.00212569	36.6256
0.00213796	36.7288
0.0021503	36.8323
0.00216272	36.9362
0.0021752	37.0403
0.00218776	37.1447
0.00220039	37.2495
0.00221309	37.3545
0.00222587	37.4599
0.00223872	37.5655
0.00225165	37.6714
0.00226464	37.7777
0.00227772	37.8843
0.00229087	37.9911
0.00230409	38.0983
0.00231739	38.2058
0.00233077	38.3136
0.00234423	38.4217
0.00235776	38.5301
0.00237137	38.6389
0.00238506	38.7479
0.00239883	38.8573
0.00241268	38.967
0.00242661	39.077
0.00244062	39.1873
0.00245471	39.2979
0.00246888	39.4089
0.00248313	39.5201
0.00249747	39.6317
0.00251189	39.7436
0.00252639	39.8559
0.00254097	39.9684
0.00255564	40.0813
0.0025704	40.1946
0.00258523	40.3081
0.00260016	40.422
0.00261517	40.5362
0.00263027	40.6507
0.00264545	40.7656
0.00266073	40.8808
0.00267609	40.9963
0.00269153	41.1122
0.00270707	41.2284
0.0027227	41.3449
0.00273842	41.4618
0.00275423	41.579
0.00277013	41.6965
0.00278612	41.8144
0.00280221	41.9326
0.00281838	42.0512
0.00283465	42.1701
0.00285102	42.2894
0.00286748	42.409
0.00288403	42.5289
0.00290068	42.6492
0.00291743	42.7699
0.00293427	42.8909
0.00295121	43.0122
0.00296825	43.1339
0.00298538	43.256
0.00300262	43.3784
0.00301995	43.5012
0.00303739	43.6243
0.00305492	43.7477
0.00307256	43.8716
0.0030903	43.9958
0.00310814	44.1203
0.00312608	44.2452
0.00314413	44.3705
0.00316228	44.4961
0.00318053	44.6221
0.0031989	44.7485
0.00321736	44.8752
0.00323594	45.0023
0.00325462	45.1298
0.00327341	45.2576
0.0032923	45.3858
0.00331131	45.5144
0.00333043	45.6434
0.00334965	45.7727
0.00336899	45.9024
0.00338844	46.0325
0.003408	46.1629
0.00342768	46.2937
0.00344747	46.425
0.00346737	46.5566
0.00348739	46.6885
0.00350752	46.8209
0.00352777	46.9536
0.00354813	47.0868
0.00356862	47.2203
0.00358922	47.3542
0.00360994	47.4885
0.00363078	47.6232
0.00365174	47.7582
0.00367282	47.8937
0.00369403	48.0295
0.00371535	48.1658
0.0037368	48.3024
0.00375837	48.4395
0.00378007	48.5769
0.00380189	48.7148
0.00382384	48.853
0.00384592	48.9917
0.00386812	49.1307
0.00389045	49.2702
0.00391291	49.41
0.0039355	49.5503
0.00395822	49.691
0.00398107	49.8321
0.00400405	49.9735
0.00402717	50.1154
0.00405042	50.2578
0.0040738	50.4005
0.00409732	50.5436
0.00412098	50.6872
0.00414477	50.8312
0.00416869	50.9756
0.00419276	51.1204
0.00421697	51.2656
0.00424131	51.4113
0.0042658	51.5574
0.00429042	51.7039
0.00431519	51.8508
0.0043401	51.9982
0.00436516	52.146
0.00439036	52.2942
0.0044157	52.4429
0.0044412	52.592
0.00446684	52.7415
0.00449262	52.8914
0.00451856	53.0418
0.00454465	53.1927
0.00457088	53.3439
0.00459727	53.4956
0.00462381	53.6478
0.0046505	53.8004
0.00467735	53.9534
0.00470435	54.1069
0.00473151	54.2609
0.00475883	54.4153
0.0047863	54.5701
0.00481393	54.7254
0.00484172	54.8811
0.00486968	55.0373
0.00489779	55.194
0.00492606	55.3511
0.0049545	55.5086
0.0049831	55.6666
0.00501187	55.8251
0.00504081	55.9841
0.00506991	56.1435
0.00509918	56.3034
0.00512861	56.4637
0.00515822	56.6245
0.005188	56.7858
0.00521795	56.9475
0.00524807	57.1097
0.00527837	57.2724
0.00530884	57.4356
0.00533949	57.5992
0.00537032	57.7634
0.00540132	57.928
0.0054325	58.093
0.00546387	58.2586
0.00549541	58.4247
0.00552713	58.5912
0.00555904	58.7582
0.00559114	58.9257
0.00562341	59.0937
0.00565588	59.2622
0.00568853	59.4312
0.00572137	59.6006
0.0057544	59.7706
0.00578762	59.9411
0.00582103	60.112
0.00585464	60.2835
0.00588844	60.4554
0.00592243	60.6279
0.00595662	60.8009
0.00599101	60.9743
0.0060256	61.1483
0.00606038	61.3228
0.00609537	61.4978
0.00613056	61.6733
0.00616595	61.8493
0.00620155	62.0259
0.00623735	62.2029
0.00627336	62.3805
0.00630957	62.5586
0.006346	62.7372
0.00638263	62.9163
0.00641948	63.096
0.00645654	63.2762
0.00649382	63.4569
0.00653131	63.6381
0.00656901	63.8199
0.00660693	64.0022
0.00664508	64.185
0.00668344	64.3684
0.00672202	64.5523
0.00676083	64.7368
0.00679986	64.9217
0.00683912	65.1073
0.0068786	65.2933
0.00691831	65.48
0.00695825	65.6671
0.00699842	65.8548
0.00703882	65.9555
0.00707946	65.9994
0.00712033	66.0438
0.00716143	66.0886
0.00720278	66.1339
0.00724436	66.1797
0.00728618	66.2259
0.00732825	66.2725
0.00737055	66.3196
0.0074131	66.3671
0.0074559	66.4151
0.00749894	66.4634
0.00754223	66.5122
0.00758578	66.5614
0.00762957	66.611
0.00767361	66.6609
0.00771792	66.7113
0.00776247	66.7621
0.00780728	66.8132
0.00785236	66.8647
0.00789769	66.9166
0.00794328	66.9688
0.00798914	67.0214
0.00803526	67.0744
0.00808165	67.1277
0.00812831	67.1814
0.00817523	67.2355
0.00822243	67.2898
0.0082699	67.3445
0.00831764	67.3996
0.00836566	67.4549
0.00841395	67.5106
0.00846253	67.5666
0.00851138	67.623
0.00856052	67.6796
0.00860994	67.7366
0.00865964	67.7939
0.00870964	67.8514
0.00875992	67.9093
0.00881049	67.9675
0.00886135	68.026
0.00891251	68.0848
0.00896396	68.1438
0.00901571	68.2032
0.00906776	68.2628
0.00912011	68.3227
0.00917276	68.3829
0.00922571	68.4434
0.00927897	68.5042
0.00933254	68.5652
0.00938642	68.6265
0.00944061	68.6881
0.00949511	68.7499
0.00954993	68.812
0.00960506	68.8743
0.00966051	68.937
0.00971628	68.9998
0.00977237	69.063
0.00982879	69.1263
0.00988553	69.19
0.0099426	69.2539
0.01	69.318
0.0100577	69.3824
0.0101158	69.447
0.0101742	69.5119
0.0102329	69.577
0.010292	69.6424
0.0103514	69.708
0.0104112	69.7739
0.0104713	69.8399
0.0105317	69.9063
0.0105925	69.9728
0.0106537	70.0396
0.0107152	70.1066
0.0107771	70.1739
0.0108393	70.2414
0.0109018	70.3091
0.0109648	70.377
0.0110281	70.4452
0.0110917	70.5136
0.0111558	70.5823
0.0112202	70.6511
0.011285	70.7202
0.0113501	70.7896
0.0114156	70.8591
0.0114815	70.9289
0.0115478	70.9989
0.0116145	71.0691
0.0116815	71.1396
0.011749	71.2102
0.0118168	71.2811
0.011885	71.3522
0.0119536	71.4236
0.0120226	71.4952
0.0120921	71.567
0.0121619	71.639
0.0122321	71.7112
0.0123027	71.7837
0.0123737	71.8564
0.0124451	71.9293
0.012517	72.0024
0.0125893	72.0758
0.0126619	72.1493
0.012735	72.2231
0.0128086	72.2972
0.0128825	72.3714
0.0129569	72.4459
0.0130317	72.5206
0.0131069	72.5955
0.0131826	72.6707
0.0132587	72.7461
0.0133352	72.8217
0.0134122	72.8975
0.0134896	72.9736
0.0135675	73.0499
0.0136458	73.1264
0.0137246	73.2032
0.0138038	73.2802
0.0138835	73.3574
0.0139637	73.4349
0.0140443	73.5125
0.0141254	73.5905
0.0142069	73.6686
0.0142889	73.747
0.0143714	73.8256
0.0144544	73.9045
0.0145378	73.9836
0.0146218	74.0629
0.0147062	74.1425
0.0147911	74.2223
0.0148765	74.3024
0.0149624	74.3827
0.0150487	74.4633
0.0151356	74.5441
0.015223	74.6251
0.0153109	74.7064
0.0153993	74.7879
0.0154882	74.8697
0.0155776	74.9518
0.0156675	75.034
0.015758	75.1166
0.0158489	75.1994
0.0159404	75.2824
0.0160325	75.3657
0.016125	75.4493
0.0162181	75.5331
0.0163117	75.6172
0.0164059	75.7016
0.0165006	75.7862
0.0165959	75.871
0.0166917	75.9562
0.016788	76.0416
0.016885	76.1273
0.0169824	76.2132
0.0170805	76.2994
0.0171791	76.3859
0.0172783	76.4727
0.017378	76.5597
0.0174783	76.6471
0.0175792	76.7347
0.0176807	76.8225
0.0177828	76.9107
0.0178855	76.9992
0.0179887	77.0879
0.0180926	77.1769
0.018197	77.2662
0.0183021	77.3558
0.0184077	77.4457
0.018514	77.5359
0.0186209	77.6264
0.0187284	77.7171
0.0188365	77.8082
0.0189452	77.8996
0.0190546	77.9913
0.0191646	78.0832
0.0192752	78.1755
0.0193865	78.2681
0.0194984	78.361
0.019611	78.4542
0.0197242	78.5478
0.0198381	78.6416
0.0199526	78.7357
0.0200678	78.8302
0.0201837	78.925
0.0203002	79.0201
0.0204174	79.1156
0.0205353	79.2113
0.0206538	79.3074
0.020773	79.4038
0.020893	79.5006
0.0210136	79.5976
0.0211349	79.6951
0.0212569	79.7928
0.0213796	79.8909
0.021503	79.9893
0.0216272	80.0881
0.021752	80.1872
0.0218776	80.2867
0.0220039	80.3865
0.0221309	80.4866
0.0222587	80.5871
0.0223872	80.688
0.0225165	80.7892
0.0226464	80.8908
0.0227772	80.9927
0.0229087	81.095
0.0230409	81.1976
0.0231739	81.3007
0.0233077	81.404
0.0234423	81.5078
0.0235776	81.6119
0.0237137	81.7164
0.0238506	81.8213
0.0239883	81.9266
0.0241268	82.0322
0.0242661	82.1382
0.0244062	82.2446
0.0245471	82.3514
0.0246888	82.4585
0.0248313	82.5661
0.0249747	82.674
0.0251189	82.7824
0.0252639	82.8911
0.0254097	83.0002
0.0255564	83.1098
0.025704	83.2197
0.0258523	83.33
0.0260016	83.4408
0.0261517	83.5519
0.0263027	83.6635
0.0264545	83.7755
0.0266073	83.8879
0.0267609	84.0007
0.0269153	84.1139
0.0270707	84.2275
0.027227	84.3416
0.0273842	84.4561
0.0275423	84.571
0.0277013	84.6863
0.0278612	84.8021
0.0280221	84.9183
0.0281838	85.0349
0.0283465	85.152
0.0285102	85.2695
0.0286748	85.3874
0.0288403	85.5058
0.0290068	85.6247
0.0291743	85.744
0.0293427	85.8637
0.0295121	85.9839
0.0296825	86.1045
0.0298538	86.2256
0.0300262	86.3472
0.0301995	86.4692
0.0303739	86.5917
0.0305492	86.7146
0.0307256	86.838
0.030903	86.9619
0.0310814	87.0862
0.0312608	87.211
0.0314413	87.3363
0.0316228	87.4621
0.0318053	87.5883
0.031989	87.715
0.0321736	87.8422
0.0323594	87.9699
0.0325462	88.0981
0.0327341	88.2268
0.032923	88.3559
0.0331131	88.4856
0.0333043	88.6157
0.0334965	88.7464
0.0336899	88.8775
0.0338844	89.0091
0.03408	89.1413
0.0342768	89.2739
0.0344747	89.4071
0.0346737	89.5408
0.0348739	89.6749
0.0350752	89.8096
0.0352777	89.9449
0.0354813	90.0806
0.0356862	90.2168
0.0358922	90.3536
0.0360994	90.4909
0.0363078	90.6287
0.0365174	90.7671
0.0367282	90.906
0.0369403	91.0454
0.0371535	91.1853
0.037368	91.3258
0.0375837	91.4668
0.0378007	91.6084
0.0380189	91.7505
0.0382384	91.8932
0.0384592	92.0364
0.0386812	92.1801
0.0389045	92.3244
0.0391291	92.4693
0.039355	92.6147
0.0395822	92.7606
0.0398107	92.9072
0.0400405	93.0543
0.0402717	93.2019
0.0405042	93.3501
0.040738	93.4989
0.0409732	93.6483
0.0412098	93.7982
0.0414477	93.9487
0.0416869	94.0998
0.0419276	94.2514
0.0421697	94.4036
0.0424131	94.5565
0.042658	94.7099
0.0429042	94.8638
0.0431519	95.0184
0.043401	95.1736
0.0436516	95.3293
0.0439036	95.4857
0.044157	95.6426
0.044412	95.8001
0.0446684	95.9583
0.0449262	96.117
0.0451856	96.2764
0.0454465	96.4363
0.0457088	96.5969
0.0459727	96.758
0.0462381	96.9198
0.046505	97.0822
0.0467735	97.2452
0.0470435	97.4088
0.0473151	97.5731
0.0475883	97.7379
0.047863	97.9034
0.0481393	98.0695
0.0484172	98.2362
0.0486968	98.4036
0.0489779	98.5716
0.0492606	98.7402
0.049545	98.9095
0.049831	99.0794
0.0501187	99.2499
0.0504081	99.4211
0.0506991	99.5929
0.0509918	99.7654
0.0512861	99.9385
0.0515822	100.112
0.05188	100.287
0.0521795	100.462
0.0524807	100.637
0.0527837	100.814
0.0530884	100.991
0.0533949	101.168
0.0537032	101.347
0.0540132	101.526
0.054325	101.705
0.0546387	101.886
0.0549541	102.067
0.0552713	102.248
0.0555904	102.431
0.0559114	102.614
0.0562341	102.797
0.0565588	102.982
0.0568853	103.167
0.0572137	103.352
0.057544	103.539
0.0578762	103.726
0.0582103	103.914
0.0585464	104.102
0.0588844	104.291
0.0592243	104.481
0.0595662	104.672
0.0599101	104.863
0.060256	105.055
0.0606038	105.247
0.0609537	105.44
0.0613056	105.634
0.0616595	105.829
0.0620155	106.025
0.0623735	106.221
0.0627336	106.417
0.0630957	106.615
0.06346	106.813
0.0638263	107.012
0.0641948	107.212
0.0645654	107.412
0.0649382	107.613
0.0653131	107.815
0.0656901	108.017
0.0660693	108.22
0.0664508	108.424
0.0668344	108.629
0.0672202	108.834
0.0676083	109.04
0.0679986	109.247
0.0683912	109.455
0.068786	109.663
0.0691831	109.872
0.0695825	110.082
0.0699842	110.292
0.0703882	110.503
0.0707946	110.715
0.0712033	110.928
0.0716143	111.141
0.0720278	111.355
0.0724436	111.57
0.0728618	111.786
0.0732825	112.002
0.0737055	112.219
0.074131	112.437
0.074559	112.656
0.0749894	112.875
0.0754223	113.095
0.0758578	113.316
0.0762957	113.537
0.0767361	113.76
0.0771792	113.983
0.0776247	114.207
0.0780728	114.431
0.0785236	114.657
0.0789769	114.883
0.0794328	115.109
0.0798914	115.337
0.0803526	115.565
0.0808165	115.794
0.0812831	116.024
0.0817523	116.255
0.0822243	116.486
0.082699	116.718
0.0831764	116.951
0.0836566	117.185
0.0841395	117.419
0.0846253	117.654
0.0851138	117.89
0.0856052	118.127
0.0860994	118.365
0.0865964	118.603
0.0870964	118.842
0.0875992	119.082
0.0881049	119.322
0.0886135	119.563
0.0891251	119.805
0.0896396	120.048
0.0901571	120.292
0.0906776	120.536
0.0912011	120.781
0.0917276	121.027
0.0922571	121.274
0.0927897	121.521
0.0933254	121.77
0.0938642	122.019
0.0944061	122.268
0.0949511	122.519
0.0954993	122.77
0.0960506	123.022
0.0966051	123.275
0.0971628	123.529
0.0977237	123.783
0.0982879	124.038
0.0988553	124.294
0.099426	124.551
0.1	124.808
0.100577	125.066
0.101158	125.325
0.101742	125.585
0.102329	125.846
0.10292	126.107
0.103514	126.369
0.104112	126.632
0.104713	126.895
0.105317	127.16
0.105925	127.425
0.106537	127.691
0.107152	127.957
0.107771	128.225
0.108393	128.493
0.109018	128.762
0.109648	129.031
0.110281	129.302
0.110917	129.573
0.111558	129.845
0.112202	130.117
0.11285	130.391
0.113501	130.665
0.114156	130.94
0.114815	131.216
0.115478	131.492
0.116145	131.769
0.116815	132.047
0.11749	132.326
0.118168	132.605
0.11885	132.886
0.119536	133.21
0.120226	133.644
0.120921	134.08
0.121619	134.519
0.122321	134.96
0.123027	135.404
0.123737	135.851
0.124451	136.3
0.12517	136.751
0.125893	137.206
0.126619	137.663
0.12735	138.122
0.128086	138.585
0.128825	139.049
0.129569	139.517
0.130317	139.988
0.131069	140.461
0.131826	140.937
0.132587	141.415
0.133352	141.897
0.134122	142.381
0.134896	142.868
0.135675	143.358
0.136458	143.851
0.137246	144.347
0.138038	144.846
0.138835	145.347
0.139637	145.852
0.140443	146.359
0.141254	146.87
0.142069	147.384
0.142889	147.9
0.143714	148.42
0.144544	148.943
0.145378	149.469
0.146218	149.998
0.147062	150.53
0.147911	151.065
0.148765	151.604
0.149624	152.146
0.150487	152.691
0.151356	153.239
0.15223	153.791
0.153109	154.346
0.153993	154.904
0.154882	155.465
0.155776	156.03
0.156675	156.598
0.15758	157.17
0.158489	157.745
0.159404	158.324
0.160325	158.906
0.16125	159.492
0.162181	160.081
0.163117	160.674
0.164059	161.27
0.165006	161.87
0.165959	162.474
0.166917	163.081
0.16788	163.692
0.16885	164.306
0.169824	164.925
0.170805	165.547
0.171791	166.173
0.172783	166.803
0.17378	167.436
0.174783	168.074
0.175792	168.715
0.176807	169.314
0.177828	169.881
0.178855	170.451
0.179887	171.023
0.180926	171.598
0.18197	172.175
0.183021	172.754
0.184077	173.336
0.18514	173.921
0.186209	174.508
0.187284	175.097
0.188365	175.689
0.189452	176.283
0.190546	176.88
0.191646	177.479
0.192752	178.081
0.193865	178.685
0.194984	179.292
0.19611	179.901
0.197242	180.513
0.198381	181.127
0.199526	181.743
0.200678	182.362
0.201837	182.984
0.203002	183.608
0.204174	184.235
0.205353	184.864
0.206538	185.495
0.20773	186.129
0.20893	186.766
0.210136	187.404
0.211349	188.046
0.212569	188.69
0.213796	189.336
0.21503	189.985
0.216272	190.636
0.21752	191.29
0.218776	191.947
0.220039	192.605
0.221309	193.267
0.222587	193.931
0.223872	194.597
0.225165	195.265
0.226464	195.937
0.227772	196.61
0.229087	197.286
0.230409	197.965
0.231739	198.646
0.233077	199.329
0.234423	200.015
0.235776	200.704
0.237137	201.394
0.238506	202.088
0.239883	202.783
0.241268	203.481
0.242661	204.182
0.244062	204.885
0.245471	205.59
0.246888	206.298
0.248313	207.008
0.249747	207.721
0.251189	208.436
0.252639	209.153
0.254097	209.873
0.255564	210.595
0.25704	211.319
0.258523	212.046
0.260016	212.775
0.261517	213.506
0.263027	214.24
0.264545	214.976
0.266073	215.714
0.267609	216.455
0.269153	217.198
0.270707	217.943
0.27227	218.691
0.273842	219.44
0.275423	220.192
0.277013	220.946
0.278612	221.703
0.280221	222.461
0.281838	223.222
0.283465	223.985
0.285102	224.75
0.286748	225.518
0.288403	226.287
0.290068	227.059
0.291743	227.833
0.293427	228.609
0.295121	229.386
0.296825	230.166
0.298538	230.949
0.300262	231.733
0.301995	232.519
0.303739	233.307
0.305492	234.097
0.307256	234.889
0.30903	235.683
0.310814	236.479
0.312608	237.277
0.314413	238.077
0.316228	238.879
0.318053	239.682
0.31989	240.488
0.321736	241.295
0.323594	242.104
0.325462	242.915
0.327341	243.728
0.32923	244.542
0.331131	245.358
0.333043	246.176
0.334965	246.996
0.336899	247.817
0.338844	248.64
0.3408	249.464
0.342768	250.29
0.344747	251.117
0.346737	251.946
0.348739	252.777
0.350752	253.609
0.352777	254.443
0.354813	255.278
0.356862	256.114
0.358922	256.952
0.360994	257.791
0.363078	258.631
0.365174	259.473
0.367282	260.316
0.369403	261.16
0.371535	262.006
0.37368	262.852
0.375837	263.7
0.378007	264.549
0.380189	265.399
0.382384	266.25
0.384592	267.102
0.386812	267.955
0.389045	268.809
0.391291	269.664
0.39355	270.52
0.395822	271.376
0.398107	272.234
0.400405	273.092
0.402717	273.951
0.405042	274.811
0.40738	275.671
0.409732	276.532
0.412098	277.394
0.414477	278.256
0.416869	279.119
0.419276	279.982
0.421697	280.845
0.424131	281.71
0.42658	282.574
0.429042	283.439
0.431519	284.304
0.43401	285.169
0.436516	286.035
0.439036	286.9
0.44157	287.766
0.44412	288.632
0.446684	289.498
0.449262	290.364
0.451856	291.23
0.454465	292.096
0.457088	292.961
0.459727	293.827
0.462381	294.692
0.46505	295.557
0.467735	296.422
0.470435	297.286
0.473151	298.15
0.475883	299.013
0.47863	299.876
0.481393	300.739
0.484172	301.6
0.486968	302.462
0.489779	303.322
0.492606	304.182
0.49545	305.041
0.49831	305.899
0.501187	306.756
0.504081	307.612
0.506991	308.467
0.509918	309.321
0.512861	310.174
0.515822	311.026
0.5188	311.877
0.521795	312.726
0.524807	313.574
0.527837	314.421
0.530884	315.266
0.533949	316.11
0.537032	316.952
0.540132	317.792
0.54325	318.631
0.546387	319.469
0.549541	320.304
0.552713	321.138
0.555904	321.97
0.559114	322.8
0.562341	323.627
0.565588	324.453
0.568853	325.277
0.572137	326.099
0.57544	326.918
0.578762	327.735
0.582103	328.55
0.585464	329.362
0.588844	330.172
0.592243	330.98
0.595662	331.785
0.599101	332.587
0.60256	333.387
0.606038	334.183
0.609537	334.978
