E [MeV]	dEdx [keV/microm]
0.001	21.6323
0.00100577	21.695
0.00101158	21.7579
0.00101742	21.8209
0.00102329	21.8842
0.0010292	21.9476
0.00103514	22.0112
0.00104112	22.075
0.00104713	22.139
0.00105317	22.2031
0.00105925	22.2674
0.00106537	22.332
0.00107152	22.3967
0.00107771	22.4616
0.00108393	22.5267
0.00109018	22.592
0.00109648	22.6574
0.00110281	22.723
0.00110917	22.7889
0.00111558	22.8549
0.00112202	22.9211
0.0011285	22.9876
0.00113501	23.0542
0.00114156	23.1209
0.00114815	23.188
0.00115478	23.2551
0.00116145	23.3225
0.00116815	23.3901
0.0011749	23.4578
0.00118168	23.5258
0.0011885	23.5939
0.00119536	23.6623
0.00120226	23.7308
0.00120921	23.7995
0.00121619	23.8685
0.00122321	23.9376
0.00123027	24.007
0.00123737	24.0765
0.00124451	24.1463
0.0012517	24.2162
0.00125893	24.2863
0.00126619	24.3567
0.0012735	24.4272
0.00128086	24.498
0.00128825	24.569
0.00129569	24.6401
0.00130317	24.7115
0.00131069	24.783
0.00131826	24.8548
0.00132587	24.9268
0.00133352	24.999
0.00134122	25.0714
0.00134896	25.144
0.00135675	25.2168
0.00136458	25.2898
0.00137246	25.3631
0.00138038	25.4365
0.00138835	25.5101
0.00139637	25.5841
0.00140443	25.6581
0.00141254	25.7324
0.00142069	25.8069
0.00142889	25.8817
0.00143714	25.9566
0.00144544	26.0318
0.00145378	26.1071
0.00146218	26.1827
0.00147062	26.2585
0.00147911	26.3346
0.00148765	26.4108
0.00149624	26.4873
0.00150487	26.564
0.00151356	26.6409
0.0015223	26.718
0.00153109	26.7953
0.00153993	26.8729
0.00154882	26.9507
0.00155776	27.0288
0.00156675	27.107
0.0015758	27.1855
0.00158489	27.2642
0.00159404	27.3431
0.00160325	27.4223
0.0016125	27.5017
0.00162181	27.5813
0.00163117	27.6611
0.00164059	27.7412
0.00165006	27.8215
0.00165959	27.902
0.00166917	27.9828
0.0016788	28.0638
0.0016885	28.145
0.00169824	28.2265
0.00170805	28.3082
0.00171791	28.3901
0.00172783	28.4723
0.0017378	28.5547
0.00174783	28.6374
0.00175792	28.7202
0.00176807	28.8034
0.00177828	28.8867
0.00178855	28.9703
0.00179887	29.0542
0.00180926	29.1383
0.0018197	29.2226
0.00183021	29.3072
0.00184077	29.392
0.0018514	29.477
0.00186209	29.5623
0.00187284	29.6479
0.00188365	29.7337
0.00189452	29.8198
0.00190546	29.906
0.00191646	29.9926
0.00192752	30.0794
0.00193865	30.1664
0.00194984	30.2537
0.0019611	30.3413
0.00197242	30.4291
0.00198381	30.5171
0.00199526	30.6054
0.00200678	30.694
0.00201837	30.7828
0.00203002	30.8719
0.00204174	30.9612
0.00205353	31.0508
0.00206538	31.1406
0.0020773	31.2307
0.0020893	31.3211
0.00210136	31.4117
0.00211349	31.5026
0.00212569	31.5937
0.00213796	31.6851
0.0021503	31.7768
0.00216272	31.8687
0.0021752	31.9609
0.00218776	32.0534
0.00220039	32.1461
0.00221309	32.2391
0.00222587	32.3324
0.00223872	32.4259
0.00225165	32.5197
0.00226464	32.6138
0.00227772	32.7082
0.00229087	32.8028
0.00230409	32.8977
0.00231739	32.9928
0.00233077	33.0883
0.00234423	33.184
0.00235776	33.28
0.00237137	33.3762
0.00238506	33.4728
0.00239883	33.5696
0.00241268	33.6667
0.00242661	33.7641
0.00244062	33.8618
0.00245471	33.9597
0.00246888	34.0579
0.00248313	34.1564
0.00249747	34.2552
0.00251189	34.3543
0.00252639	34.4537
0.00254097	34.5533
0.00255564	34.6533
0.0025704	34.7535
0.00258523	34.854
0.00260016	34.9548
0.00261517	35.0559
0.00263027	35.1573
0.00264545	35.2589
0.00266073	35.3609
0.00267609	35.4632
0.00269153	35.5658
0.00270707	35.6686
0.0027227	35.7718
0.00273842	35.8752
0.00275423	35.979
0.00277013	36.083
0.00278612	36.1874
0.00280221	36.292
0.00281838	36.397
0.00283465	36.5022
0.00285102	36.6077
0.00286748	36.7136
0.00288403	36.8198
0.00290068	36.9263
0.00291743	37.033
0.00293427	37.1401
0.00295121	37.2475
0.00296825	37.3552
0.00298538	37.4632
0.00300262	37.5716
0.00301995	37.6802
0.00303739	37.7892
0.00305492	37.8984
0.00307256	38.008
0.0030903	38.1179
0.00310814	38.2281
0.00312608	38.3386
0.00314413	38.4495
0.00316228	38.5606
0.00318053	38.6721
0.0031989	38.7839
0.00321736	38.8961
0.00323594	39.0085
0.00325462	39.1213
0.00327341	39.2344
0.0032923	39.3479
0.00331131	39.4616
0.00333043	39.5757
0.00334965	39.6901
0.00336899	39.8049
0.00338844	39.9199
0.003408	40.0353
0.00342768	40.1511
0.00344747	40.2671
0.00346737	40.3835
0.00348739	40.5003
0.00350752	40.6173
0.00352777	40.7348
0.00354813	40.8525
0.00356862	40.9707
0.00358922	41.0891
0.00360994	41.2078
0.00363078	41.327
0.00365174	41.4464
0.00367282	41.5662
0.00369403	41.6864
0.00371535	41.8069
0.0037368	41.9277
0.00375837	42.0489
0.00378007	42.1705
0.00380189	42.2924
0.00382384	42.4146
0.00384592	42.5372
0.00386812	42.6602
0.00389045	42.7835
0.00391291	42.9071
0.0039355	43.0311
0.00395822	43.1555
0.00398107	43.2802
0.00400405	43.4053
0.00402717	43.5308
0.00405042	43.6903
0.0040738	43.8165
0.00409732	43.943
0.00412098	44.0699
0.00414477	44.1972
0.00416869	44.3249
0.00419276	44.4529
0.00421697	44.5812
0.00424131	44.71
0.0042658	44.8391
0.00429042	44.9686
0.00431519	45.0985
0.0043401	45.2287
0.00436516	45.3593
0.00439036	45.4903
0.0044157	45.6216
0.0044412	45.7534
0.00446684	45.8855
0.00449262	46.018
0.00451856	46.1509
0.00454465	46.2841
0.00457088	46.4178
0.00459727	46.5518
0.00462381	46.6863
0.0046505	46.8211
0.00467735	46.9563
0.00470435	47.0919
0.00473151	47.2279
0.00475883	47.3642
0.0047863	47.501
0.00481393	47.6382
0.00484172	47.7757
0.00486968	47.9137
0.00489779	48.0927
0.00492606	48.2315
0.0049545	48.3706
0.0049831	48.5102
0.00501187	48.6501
0.00504081	48.7905
0.00506991	48.9312
0.00509918	49.0724
0.00512861	49.214
0.00515822	49.3559
0.005188	49.4983
0.00521795	49.6411
0.00524807	49.7844
0.00527837	49.928
0.00530884	50.072
0.00533949	50.2607
0.00537032	50.4056
0.00540132	50.5509
0.0054325	50.6966
0.00546387	50.8427
0.00549541	50.9893
0.00552713	51.1362
0.00555904	51.2836
0.00559114	51.4314
0.00562341	51.5797
0.00565588	51.7283
0.00568853	51.8774
0.00572137	52.027
0.0057544	52.1769
0.00578762	52.3273
0.00582103	52.4782
0.00585464	52.6294
0.00588844	52.7811
0.00592243	52.9332
0.00595662	53.0858
0.00599101	53.2389
0.0060256	53.3923
0.00606038	53.5462
0.00609537	53.7005
0.00613056	53.8553
0.00616595	54.0105
0.00620155	54.1662
0.00623735	54.3224
0.00627336	54.4789
0.00630957	54.636
0.006346	54.7934
0.00638263	54.9514
0.00641948	55.1098
0.00645654	55.2686
0.00649382	55.4279
0.00653131	55.5877
0.00656901	55.7479
0.00660693	55.9086
0.00664508	56.0698
0.00668344	56.2314
0.00672202	56.3935
0.00676083	56.556
0.00679986	56.719
0.00683912	56.8825
0.0068786	57.0465
0.00691831	57.2109
0.00695825	57.3758
0.00699842	57.5412
0.00703882	57.707
0.00707946	57.8733
0.00712033	58.0402
0.00716143	58.2074
0.00720278	58.3752
0.00724436	58.5435
0.00728618	58.7122
0.00732825	58.8815
0.00737055	59.0512
0.0074131	59.2214
0.0074559	59.3921
0.00749894	59.5633
0.00754223	59.7349
0.00758578	59.9071
0.00762957	60.0798
0.00767361	60.253
0.00771792	60.4266
0.00776247	60.6008
0.00780728	60.7755
0.00785236	60.9507
0.00789769	61.1264
0.00794328	61.3026
0.00798914	61.4793
0.00803526	61.6565
0.00808165	61.8342
0.00812831	62.0124
0.00817523	62.1912
0.00822243	62.3704
0.0082699	62.5502
0.00831764	62.7305
0.00836566	62.9113
0.00841395	63.0926
0.00846253	63.2745
0.00851138	63.4569
0.00856052	63.6398
0.00860994	63.8232
0.00865964	64.0072
0.00870964	64.1917
0.00875992	64.3767
0.00881049	64.5622
0.00886135	64.7483
0.00891251	64.9349
0.00896396	65.1221
0.00901571	65.3098
0.00906776	65.4981
0.00912011	65.6869
0.00917276	65.8762
0.00922571	66.0661
0.00927897	66.2565
0.00933254	66.4475
0.00938642	66.639
0.00944061	66.8311
0.00949511	67.0238
0.00954993	67.2169
0.00960506	67.4107
0.00966051	67.605
0.00971628	67.7998
0.00977237	67.9953
0.00982879	68.1912
0.00988553	68.3878
0.0099426	68.5849
0.01	68.7826
0.0100577	68.9809
0.0101158	69.1797
0.0101742	69.3791
0.0102329	69.579
0.010292	69.7796
0.0103514	69.9807
0.0104112	70.1825
0.0104713	70.3848
0.0105317	70.5876
0.0105925	70.7911
0.0106537	70.9951
0.0107152	71.1998
0.0107771	71.405
0.0108393	71.6108
0.0109018	71.8172
0.0109648	72.0242
0.0110281	72.2318
0.0110917	72.44
0.0111558	72.6488
0.0112202	72.8582
0.011285	73.0682
0.0113501	73.2788
0.0114156	73.4901
0.0114815	73.7019
0.0115478	73.9143
0.0116145	74.1273
0.0116815	74.341
0.011749	74.5553
0.0118168	74.7702
0.011885	74.9857
0.0119536	75.2019
0.0120226	75.4186
0.0120921	75.636
0.0121619	75.854
0.0122321	76.0726
0.0123027	76.2919
0.0123737	76.5118
0.0124451	76.7323
0.012517	76.9535
0.0125893	77.1753
0.0126619	77.3978
0.012735	77.6209
0.0128086	77.8446
0.0128825	78.069
0.0129569	78.294
0.0130317	78.5197
0.0131069	78.746
0.0131826	78.973
0.0132587	79.2006
0.0133352	79.4289
0.0134122	79.6578
0.0134896	79.8874
0.0135675	80.1177
0.0136458	80.3487
0.0137246	80.5803
0.0138038	80.8125
0.0138835	81.0454
0.0139637	81.279
0.0140443	81.5133
0.0141254	81.7483
0.0142069	81.9839
0.0142889	82.2202
0.0143714	82.4572
0.0144544	82.6949
0.0145378	82.9332
0.0146218	83.1723
0.0147062	83.412
0.0147911	83.6524
0.0148765	83.8936
0.0149624	84.1353
0.0150487	84.3779
0.0151356	84.6211
0.015223	84.865
0.0153109	85.1096
0.0153993	85.3549
0.0154882	85.601
0.0155776	85.8477
0.0156675	86.0951
0.015758	86.3433
0.0158489	86.5922
0.0159404	86.8417
0.0160325	87.0921
0.016125	87.3431
0.0162181	87.5949
0.0163117	87.8473
0.0164059	88.1006
0.0165006	88.3545
0.0165959	88.6091
0.0166917	88.8646
0.016788	89.1207
0.016885	89.3776
0.0169824	89.6352
0.0170805	89.8936
0.0171791	90.1527
0.0172783	90.4125
0.017378	90.6731
0.0174783	90.9345
0.0175792	91.1966
0.0176807	91.4595
0.0177828	91.7231
0.0178855	91.9874
0.0179887	92.2526
0.0180926	92.5185
0.018197	92.7852
0.0183021	93.0526
0.0184077	93.3208
0.018514	93.5898
0.0186209	93.8596
0.0187284	94.1301
0.0188365	94.4013
0.0189452	94.6737
0.0190546	94.9465
0.0191646	95.2202
0.0192752	95.4944
0.0193865	95.7698
0.0194984	96.0457
0.019611	96.3228
0.0197242	96.6004
0.0198381	96.8788
0.0199526	97.1581
0.0200678	97.438
0.0201837	97.719
0.0203002	98.0005
0.0204174	98.2829
0.0205353	98.5664
0.0206538	98.8506
0.020773	99.1351
0.020893	99.4212
0.0210136	99.7079
0.0211349	99.9952
0.0212569	100.283
0.0213796	100.572
0.021503	100.862
0.0216272	101.153
0.021752	101.445
0.0218776	101.737
0.0220039	102.03
0.0221309	102.325
0.0222587	102.619
0.0223872	102.915
0.0225165	103.212
0.0226464	103.509
0.0227772	103.807
0.0229087	104.107
0.0230409	104.407
0.0231739	104.708
0.0233077	105.009
0.0234423	105.312
0.0235776	105.616
0.0237137	105.92
0.0238506	106.226
0.0239883	106.532
0.0241268	106.839
0.0242661	107.146
0.0244062	107.456
0.0245471	107.765
0.0246888	108.076
0.0248313	108.387
0.0249747	108.7
0.0251189	109.013
0.0252639	109.327
0.0254097	109.642
0.0255564	109.958
0.025704	110.275
0.0258523	110.593
0.0260016	110.912
0.0261517	111.232
0.0263027	111.552
0.0264545	111.874
0.0266073	112.196
0.0267609	112.52
0.0269153	112.844
0.0270707	113.169
0.027227	113.495
0.0273842	113.823
0.0275423	114.151
0.0277013	114.48
0.0278612	114.81
0.0280221	115.141
0.0281838	115.472
0.0283465	115.805
0.0285102	116.139
0.0286748	116.474
0.0288403	116.81
0.0290068	117.146
0.0291743	117.484
0.0293427	117.823
0.0295121	118.162
0.0296825	118.503
0.0298538	118.844
0.0300262	119.187
0.0301995	119.53
0.0303739	119.875
0.0305492	120.221
0.0307256	120.567
0.030903	120.914
0.0310814	121.263
0.0312608	121.612
0.0314413	121.963
0.0316228	122.315
0.0318053	122.667
0.031989	123.021
0.0321736	123.375
0.0323594	123.731
0.0325462	124.087
0.0327341	124.445
0.032923	124.804
0.0331131	125.164
0.0333043	125.525
0.0334965	125.887
0.0336899	126.249
0.0338844	126.613
0.03408	126.978
0.0342768	127.344
0.0344747	127.711
0.0346737	128.079
0.0348739	128.448
0.0350752	128.818
0.0352777	129.19
0.0354813	129.562
0.0356862	129.936
0.0358922	130.31
0.0360994	130.686
0.0363078	131.063
0.0365174	131.44
0.0367282	131.819
0.0369403	132.199
0.0371535	132.58
0.037368	132.962
0.0375837	133.346
0.0378007	133.73
0.0380189	134.115
0.0382384	134.502
0.0384592	134.89
0.0386812	135.279
0.0389045	135.668
0.0391291	136.059
0.039355	136.452
0.0395822	136.845
0.0398107	137.239
0.0400405	137.635
0.0402717	138.032
0.0405042	138.43
0.040738	138.829
0.0409732	139.229
0.0412098	139.63
0.0414477	140.032
0.0416869	140.436
0.0419276	140.841
0.0421697	141.247
0.0424131	141.654
0.042658	142.062
0.0429042	142.472
0.0431519	142.882
0.043401	143.294
0.0436516	143.707
0.0439036	144.122
0.044157	144.537
0.044412	144.953
0.0446684	145.371
0.0449262	145.79
0.0451856	146.211
0.0454465	146.632
0.0457088	147.055
0.0459727	147.479
0.0462381	147.904
0.046505	148.33
0.0467735	148.757
0.0470435	149.186
0.0473151	149.616
0.0475883	150.047
0.047863	150.48
0.0481393	150.914
0.0484172	151.349
0.0486968	151.785
0.0489779	152.222
0.0492606	152.661
0.049545	153.101
0.049831	153.542
0.0501187	153.985
0.0504081	154.429
0.0506991	154.874
0.0509918	155.32
0.0512861	155.768
0.0515822	156.217
0.05188	156.667
0.0521795	157.119
0.0524807	157.572
0.0527837	158.026
0.0530884	158.482
0.0533949	158.938
0.0537032	159.397
0.0540132	159.856
0.054325	160.317
0.0546387	160.779
0.0549541	161.242
0.0552713	161.707
0.0555904	162.173
0.0559114	162.641
0.0562341	163.109
0.0565588	163.579
0.0568853	164.051
0.0572137	164.524
0.057544	164.998
0.0578762	165.474
0.0582103	165.95
0.0585464	166.429
0.0588844	166.908
0.0592243	167.39
0.0595662	167.872
0.0599101	168.356
0.060256	168.842
0.0606038	169.328
0.0609537	169.816
0.0613056	170.306
0.0616595	170.797
0.0620155	171.289
0.0623735	171.782
0.0627336	172.277
0.0630957	172.774
0.06346	173.272
0.0638263	173.772
0.0641948	174.272
0.0645654	174.775
0.0649382	175.278
0.0653131	175.784
0.0656901	176.29
0.0660693	176.798
0.0664508	177.308
0.0668344	177.819
0.0672202	178.332
0.0676083	178.846
0.0679986	179.361
0.0683912	179.878
0.068786	180.396
0.0691831	180.917
0.0695825	181.438
0.0699842	181.961
0.0703882	182.485
0.0707946	183.012
0.0712033	183.539
0.0716143	184.068
0.0720278	184.599
0.0724436	185.131
0.0728618	185.664
0.0732825	186.2
0.0737055	186.736
0.074131	187.275
0.074559	187.814
0.0749894	188.356
0.0754223	188.898
0.0758578	189.443
0.0762957	189.989
0.0767361	190.536
0.0771792	191.086
0.0776247	191.637
0.0780728	192.189
0.0785236	192.743
0.0789769	193.298
0.0794328	193.856
0.0798914	194.414
0.0803526	194.975
0.0808165	195.537
0.0812831	196.101
0.0817523	196.665
0.0822243	197.233
0.082699	197.801
0.0831764	198.371
0.0836566	198.943
0.0841395	199.516
0.0846253	200.092
0.0851138	200.668
0.0856052	201.246
0.0860994	201.827
0.0865964	202.408
0.0870964	202.992
0.0875992	203.577
0.0881049	204.164
0.0886135	204.752
0.0891251	205.342
0.0896396	205.934
0.0901571	206.528
0.0906776	207.123
0.0912011	207.72
0.0917276	208.319
0.0922571	208.919
0.0927897	209.522
0.0933254	210.125
0.0938642	210.731
0.0944061	211.339
0.0949511	211.948
0.0954993	212.559
0.0960506	213.171
0.0966051	213.785
0.0971628	214.402
0.0977237	215.02
0.0982879	215.64
0.0988553	216.261
0.099426	216.884
0.1	217.51
0.100577	218.136
0.101158	218.765
0.101742	219.396
0.102329	220.028
0.10292	220.662
0.103514	221.299
0.104112	221.937
0.104713	222.576
0.105317	223.217
0.105925	223.861
0.106537	224.506
0.107152	225.154
0.107771	225.802
0.108393	226.453
0.109018	227.106
0.109648	227.761
0.110281	228.417
0.110917	229.076
0.111558	229.736
0.112202	230.398
0.11285	231.062
0.113501	231.728
0.114156	232.396
0.114815	233.066
0.115478	233.738
0.116145	234.412
0.116815	235.087
0.11749	235.764
0.118168	236.444
0.11885	237.126
0.119536	237.809
0.120226	238.494
0.120921	239.182
0.121619	239.871
0.122321	240.563
0.123027	241.256
0.123737	241.952
0.124451	242.649
0.12517	243.348
0.125893	244.05
0.126619	244.753
0.12735	245.459
0.128086	246.166
0.128825	246.876
0.129569	247.587
0.130317	248.301
0.131069	249.017
0.131826	249.735
0.132587	250.454
0.133352	251.176
0.134122	251.9
0.134896	252.626
0.135675	253.355
0.136458	254.085
0.137246	254.817
0.138038	255.552
0.138835	256.288
0.139637	257.027
0.140443	257.768
0.141254	258.511
0.142069	259.256
0.142889	260.003
0.143714	260.753
0.144544	261.504
0.145378	262.258
0.146218	263.014
0.147062	263.772
0.147911	264.532
0.148765	265.295
0.149624	266.059
0.150487	266.826
0.151356	267.595
0.15223	268.367
0.153109	269.14
0.153993	269.916
0.154882	270.694
0.155776	271.474
0.156675	272.256
0.15758	273.042
0.158489	273.828
0.159404	274.618
0.160325	275.409
0.16125	276.203
0.162181	276.999
0.163117	277.798
0.164059	278.598
0.165006	279.401
0.165959	280.207
0.166917	281.014
0.16788	281.824
0.16885	282.637
0.169824	283.451
0.170805	284.268
0.171791	285.088
0.172783	285.91
0.17378	286.734
0.174783	287.56
0.175792	288.352
0.176807	289.137
0.177828	289.924
0.178855	290.714
0.179887	291.507
0.180926	292.302
0.18197	293.1
0.183021	293.901
0.184077	294.704
0.18514	295.51
0.186209	296.319
0.187284	297.13
0.188365	297.944
0.189452	298.761
0.190546	299.58
0.191646	300.402
0.192752	301.227
0.193865	302.054
0.194984	302.884
0.19611	303.717
0.197242	304.552
0.198381	305.391
0.199526	306.232
0.200678	307.075
0.201837	307.921
0.203002	308.77
0.204174	309.622
0.205353	310.476
0.206538	311.333
0.20773	312.193
0.20893	313.056
0.210136	313.918
0.211349	314.762
0.212569	315.608
0.213796	316.457
0.21503	317.308
0.216272	318.162
0.21752	319.019
0.218776	319.877
0.220039	320.739
0.221309	321.603
0.222587	322.469
0.223872	323.338
0.225165	324.206
0.226464	325.047
0.227772	325.892
0.229087	326.739
0.230409	327.59
0.231739	328.444
0.233077	329.3
0.234423	330.159
0.235776	331.021
0.237137	331.886
0.238506	332.754
0.239883	333.625
0.241268	334.499
0.242661	335.375
0.244062	336.254
0.245471	337.137
0.246888	338.021
0.248313	338.909
0.249747	339.799
0.251189	340.692
0.252639	341.588
0.254097	342.486
0.255564	343.387
0.25704	344.291
0.258523	345.197
0.260016	346.106
0.261517	347.017
0.263027	347.931
0.264545	348.848
0.266073	349.766
0.267609	350.688
0.269153	351.612
0.270707	352.525
0.27227	353.425
0.273842	354.328
0.275423	355.229
0.277013	356.126
0.278612	357.025
0.280221	357.926
0.281838	358.825
0.283465	359.726
0.285102	360.629
0.286748	361.536
0.288403	362.445
0.290068	363.356
0.291743	364.27
0.293427	365.187
0.295121	366.106
0.296825	367.028
0.298538	367.952
0.300262	368.879
0.301995	369.808
0.303739	370.74
0.305492	371.673
0.307256	372.61
0.30903	373.548
0.310814	374.489
0.312608	375.433
0.314413	376.378
0.316228	377.325
0.318053	378.276
0.31989	379.228
0.321736	380.182
0.323594	381.138
0.325462	382.096
0.327341	383.056
0.32923	384.019
0.331131	384.965
0.333043	385.9
0.334965	386.837
0.336899	387.777
0.338844	388.717
0.3408	389.659
0.342768	390.603
0.344747	391.548
0.346737	392.494
0.348739	393.442
0.350752	394.391
0.352777	395.341
0.354813	396.292
0.356862	397.245
0.358922	398.198
0.360994	399.149
0.363078	400.098
0.365174	401.047
0.367282	401.997
0.369403	402.947
0.371535	403.899
0.37368	404.851
0.375837	405.804
0.378007	406.758
0.380189	407.712
0.382384	408.667
0.384592	409.622
0.386812	410.578
0.389045	411.534
0.391291	412.491
0.39355	413.449
0.395822	414.406
0.398107	415.364
0.400405	416.322
0.402717	417.28
0.405042	418.239
0.40738	419.197
0.409732	420.156
0.412098	421.114
0.414477	422.073
0.416869	423.031
0.419276	423.99
0.421697	424.948
0.424131	425.905
0.42658	426.863
0.429042	427.82
0.431519	428.777
0.43401	429.733
0.436516	430.688
0.439036	431.643
0.44157	432.593
0.44412	433.538
0.446684	434.482
0.449262	435.426
0.451856	436.368
0.454465	437.309
0.457088	438.249
0.459727	439.188
0.462381	440.126
0.46505	441.063
0.467735	441.999
0.470435	442.933
0.473151	443.867
0.475883	444.798
0.47863	445.729
0.481393	446.658
0.484172	447.586
0.486968	448.513
0.489779	449.438
0.492606	450.36
0.49545	451.282
0.49831	452.202
0.501187	453.121
0.504081	454.037
0.506991	454.953
0.509918	455.866
0.512861	456.778
0.515822	457.688
0.5188	458.596
0.521795	459.503
0.524807	460.408
0.527837	461.311
0.530884	462.213
0.533949	463.112
0.537032	464.01
0.540132	464.907
0.54325	465.801
0.546387	466.694
0.549541	467.584
0.552713	468.473
0.555904	469.36
0.559114	470.245
0.562341	471.128
0.565588	472.01
0.568853	472.889
0.572137	473.767
0.57544	474.642
0.578762	475.515
0.582103	476.386
0.585464	477.255
0.588844	478.121
0.592243	478.985
0.595662	479.846
0.599101	480.705
0.60256	481.561
0.606038	482.414
0.609537	483.264
0.613056	484.111
0.616595	484.956
0.620155	485.797
0.623735	486.635
0.627336	487.471
