E [MeV]	dEdx [keV/microm]
0.001	28.7795
0.00100577	28.863
0.00101158	28.9468
0.00101742	29.0309
0.00102329	29.1152
0.0010292	29.1997
0.00103514	29.2845
0.00104112	29.3695
0.00104713	29.4548
0.00105317	29.5403
0.00105925	29.626
0.00106537	29.712
0.00107152	29.7983
0.00107771	29.8848
0.00108393	29.9715
0.00109018	30.0585
0.00109648	30.1457
0.00110281	30.2332
0.00110917	30.321
0.00111558	30.409
0.00112202	30.4973
0.0011285	30.5858
0.00113501	30.6745
0.00114156	30.7635
0.00114815	30.8528
0.00115478	30.9423
0.00116145	31.0322
0.00116815	31.1222
0.0011749	31.2125
0.00118168	31.3031
0.0011885	31.3939
0.00119536	31.485
0.00120226	31.5764
0.00120921	31.668
0.00121619	31.7599
0.00122321	31.8521
0.00123027	31.9445
0.00123737	32.0371
0.00124451	32.1301
0.0012517	32.2233
0.00125893	32.3168
0.00126619	32.4105
0.0012735	32.5046
0.00128086	32.5989
0.00128825	32.6935
0.00129569	32.7883
0.00130317	32.8834
0.00131069	32.9788
0.00131826	33.0745
0.00132587	33.1704
0.00133352	33.2666
0.00134122	33.3631
0.00134896	33.4599
0.00135675	33.5569
0.00136458	33.6543
0.00137246	33.7519
0.00138038	33.8498
0.00138835	33.9479
0.00139637	34.0464
0.00140443	34.1452
0.00141254	34.2441
0.00142069	34.3435
0.00142889	34.4431
0.00143714	34.543
0.00144544	34.6432
0.00145378	34.7436
0.00146218	34.8444
0.00147062	34.9454
0.00147911	35.0467
0.00148765	35.1483
0.00149624	35.2503
0.00150487	35.3525
0.00151356	35.455
0.0015223	35.5578
0.00153109	35.6609
0.00153993	35.7643
0.00154882	35.868
0.00155776	35.9719
0.00156675	36.0762
0.0015758	36.1809
0.00158489	36.2857
0.00159404	36.3909
0.00160325	36.4964
0.0016125	36.6022
0.00162181	36.7084
0.00163117	36.8147
0.00164059	36.9215
0.00165006	37.0285
0.00165959	37.1358
0.00166917	37.2435
0.0016788	37.3515
0.0016885	37.4597
0.00169824	37.5683
0.00170805	37.6772
0.00171791	37.7864
0.00172783	37.8959
0.0017378	38.0058
0.00174783	38.1159
0.00175792	38.2264
0.00176807	38.3372
0.00177828	38.4483
0.00178855	38.5597
0.00179887	38.6715
0.00180926	38.7835
0.0018197	38.8959
0.00183021	39.0086
0.00184077	39.1217
0.0018514	39.2351
0.00186209	39.3488
0.00187284	39.4628
0.00188365	39.5771
0.00189452	39.6918
0.00190546	39.8068
0.00191646	39.9222
0.00192752	40.0379
0.00193865	40.1539
0.00194984	40.2702
0.0019611	40.3869
0.00197242	40.5039
0.00198381	40.6213
0.00199526	40.739
0.00200678	40.857
0.00201837	40.9754
0.00203002	41.0941
0.00204174	41.2132
0.00205353	41.3326
0.00206538	41.4523
0.0020773	41.5724
0.0020893	41.6928
0.00210136	41.8136
0.00211349	41.9347
0.00212569	42.0562
0.00213796	42.178
0.0021503	42.3002
0.00216272	42.4227
0.0021752	42.5456
0.00218776	42.6689
0.00220039	42.7925
0.00221309	42.9164
0.00222587	43.0407
0.00223872	43.1654
0.00225165	43.2904
0.00226464	43.4158
0.00227772	43.5415
0.00229087	43.6676
0.00230409	43.7941
0.00231739	43.921
0.00233077	44.0481
0.00234423	44.1757
0.00235776	44.3037
0.00237137	44.4319
0.00238506	44.5607
0.00239883	44.6897
0.00241268	44.8191
0.00242661	44.9489
0.00244062	45.0791
0.00245471	45.2096
0.00246888	45.3405
0.00248313	45.4718
0.00249747	45.6035
0.00251189	45.7356
0.00252639	45.868
0.00254097	46.0008
0.00255564	46.134
0.0025704	46.2676
0.00258523	46.4016
0.00260016	46.5359
0.00261517	46.6707
0.00263027	46.8058
0.00264545	46.9413
0.00266073	47.0772
0.00267609	47.2135
0.00269153	47.3502
0.00270707	47.4873
0.0027227	47.6248
0.00273842	47.7627
0.00275423	47.9009
0.00277013	48.0396
0.00278612	48.1787
0.00280221	48.3182
0.00281838	48.458
0.00283465	48.5983
0.00285102	48.739
0.00286748	48.8801
0.00288403	49.0216
0.00290068	49.1635
0.00291743	49.3058
0.00293427	49.4485
0.00295121	49.5917
0.00296825	49.7352
0.00298538	49.8792
0.00300262	50.0236
0.00301995	50.1683
0.00303739	50.3136
0.00305492	50.4592
0.00307256	50.6052
0.0030903	50.7517
0.00310814	50.8986
0.00312608	51.0459
0.00314413	51.1937
0.00316228	51.3418
0.00318053	51.4904
0.0031989	51.6394
0.00321736	51.7889
0.00323594	51.9388
0.00325462	52.0891
0.00327341	52.2398
0.0032923	52.391
0.00331131	52.5427
0.00333043	52.6947
0.00334965	52.8472
0.00336899	53.0001
0.00338844	53.1535
0.003408	53.3073
0.00342768	53.4616
0.00344747	53.6163
0.00346737	53.7714
0.00348739	53.927
0.00350752	54.0831
0.00352777	54.2396
0.00354813	54.3965
0.00356862	54.5539
0.00358922	54.7118
0.00360994	54.87
0.00363078	55.0288
0.00365174	55.188
0.00367282	55.3478
0.00369403	55.5079
0.00371535	55.6685
0.0037368	55.8295
0.00375837	55.9911
0.00378007	56.1531
0.00380189	56.3155
0.00382384	56.4785
0.00384592	56.6418
0.00386812	56.8057
0.00389045	56.9701
0.00391291	57.1349
0.0039355	57.3002
0.00395822	57.4659
0.00398107	57.6322
0.00400405	57.7989
0.00402717	57.9661
0.00405042	58.1338
0.0040738	58.302
0.00409732	58.4706
0.00412098	58.6398
0.00414477	58.8094
0.00416869	58.9795
0.00419276	59.1501
0.00421697	59.3212
0.00424131	59.4928
0.0042658	59.6649
0.00429042	59.8375
0.00431519	60.0106
0.0043401	60.1842
0.00436516	60.3582
0.00439036	60.5328
0.0044157	60.7079
0.0044412	60.8835
0.00446684	61.0596
0.00449262	61.2362
0.00451856	61.4133
0.00454465	61.5909
0.00457088	61.7691
0.00459727	61.9477
0.00462381	62.1269
0.0046505	62.3066
0.00467735	62.4868
0.00470435	62.6675
0.00473151	62.8487
0.00475883	63.0305
0.0047863	63.2128
0.00481393	63.3956
0.00484172	63.5789
0.00486968	63.7628
0.00489779	63.9472
0.00492606	64.1321
0.0049545	64.3175
0.0049831	64.5035
0.00501187	64.6901
0.00504081	64.8771
0.00506991	65.0648
0.00509918	65.2529
0.00512861	65.4416
0.00515822	65.6308
0.005188	65.8206
0.00521795	66.0109
0.00524807	66.2018
0.00527837	66.3932
0.00530884	66.5852
0.00533949	66.7777
0.00537032	66.9708
0.00540132	67.1645
0.0054325	67.3587
0.00546387	67.5534
0.00549541	67.7487
0.00552713	67.9446
0.00555904	68.1411
0.00559114	68.3381
0.00562341	68.5357
0.00565588	68.7338
0.00568853	68.9325
0.00572137	69.1319
0.0057544	69.3317
0.00578762	69.5322
0.00582103	69.7332
0.00585464	69.9348
0.00588844	70.137
0.00592243	70.3398
0.00595662	70.5431
0.00599101	70.747
0.0060256	70.9516
0.00606038	71.1567
0.00609537	71.3624
0.00613056	71.5687
0.00616595	71.7756
0.00620155	71.9831
0.00623735	72.1912
0.00627336	72.3999
0.00630957	72.6091
0.006346	72.819
0.00638263	73.0295
0.00641948	73.2406
0.00645654	73.4524
0.00649382	73.6647
0.00653131	73.8777
0.00656901	74.0912
0.00660693	74.3053
0.00664508	74.5201
0.00668344	74.7355
0.00672202	74.9515
0.00676083	75.1682
0.00679986	75.3855
0.00683912	75.6033
0.0068786	75.8219
0.00691831	76.041
0.00695825	76.2608
0.00699842	76.4813
0.00703882	76.7023
0.00707946	76.924
0.00712033	77.1463
0.00716143	77.3693
0.00720278	77.5929
0.00724436	77.8172
0.00728618	78.0421
0.00732825	78.2676
0.00737055	78.4938
0.0074131	78.7821
0.0074559	79.0096
0.00749894	79.2378
0.00754223	79.4666
0.00758578	79.6961
0.00762957	79.9262
0.00767361	80.157
0.00771792	80.3885
0.00776247	80.6207
0.00780728	80.8535
0.00785236	81.0869
0.00789769	81.3211
0.00794328	81.5559
0.00798914	81.7914
0.00803526	82.0276
0.00808165	82.2645
0.00812831	82.502
0.00817523	82.7403
0.00822243	82.9792
0.0082699	83.2188
0.00831764	83.4591
0.00836566	83.7001
0.00841395	83.9418
0.00846253	84.1842
0.00851138	84.4272
0.00856052	84.671
0.00860994	84.9155
0.00865964	85.2325
0.00870964	85.4784
0.00875992	85.725
0.00881049	85.9723
0.00886135	86.2204
0.00891251	86.4691
0.00896396	86.7186
0.00901571	86.9687
0.00906776	87.2196
0.00912011	87.4712
0.00917276	87.7236
0.00922571	87.9767
0.00927897	88.2305
0.00933254	88.5623
0.00938642	88.8176
0.00944061	89.0736
0.00949511	89.3304
0.00954993	89.5878
0.00960506	89.8461
0.00966051	90.105
0.00971628	90.3647
0.00977237	90.6252
0.00982879	90.8865
0.00988553	91.1484
0.0099426	91.4111
0.01	91.6746
0.0100577	91.9389
0.0101158	92.2039
0.0101742	92.4696
0.0102329	92.7362
0.010292	93.0035
0.0103514	93.2715
0.0104112	93.5403
0.0104713	93.81
0.0105317	94.0804
0.0105925	94.3515
0.0106537	94.6235
0.0107152	94.8962
0.0107771	95.1697
0.0108393	95.4439
0.0109018	95.7193
0.0109648	95.9949
0.0110281	96.2717
0.0110917	96.5493
0.0111558	96.8275
0.0112202	97.1065
0.011285	97.3867
0.0113501	97.6674
0.0114156	97.9487
0.0114815	98.2311
0.0115478	98.5144
0.0116145	98.7983
0.0116815	99.0828
0.011749	99.3686
0.0118168	99.6551
0.011885	99.9424
0.0119536	100.23
0.0120226	100.519
0.0120921	100.809
0.0121619	101.1
0.0122321	101.391
0.0123027	101.683
0.0123737	101.976
0.0124451	102.27
0.012517	102.565
0.0125893	102.861
0.0126619	103.157
0.012735	103.454
0.0128086	103.753
0.0128825	104.052
0.0129569	104.352
0.0130317	104.652
0.0131069	104.954
0.0131826	105.256
0.0132587	105.56
0.0133352	105.864
0.0134122	106.169
0.0134896	106.476
0.0135675	106.782
0.0136458	107.09
0.0137246	107.399
0.0138038	107.708
0.0138835	108.019
0.0139637	108.33
0.0140443	108.642
0.0141254	108.955
0.0142069	109.269
0.0142889	109.584
0.0143714	109.9
0.0144544	110.217
0.0145378	110.535
0.0146218	110.854
0.0147062	111.173
0.0147911	111.494
0.0148765	111.815
0.0149624	112.137
0.0150487	112.46
0.0151356	112.784
0.015223	113.109
0.0153109	113.435
0.0153993	113.763
0.0154882	114.09
0.0155776	114.419
0.0156675	114.749
0.015758	115.08
0.0158489	115.412
0.0159404	115.744
0.0160325	116.078
0.016125	116.412
0.0162181	116.748
0.0163117	117.084
0.0164059	117.422
0.0165006	117.76
0.0165959	118.1
0.0166917	118.44
0.016788	118.782
0.016885	119.124
0.0169824	119.467
0.0170805	119.812
0.0171791	120.157
0.0172783	120.503
0.017378	120.851
0.0174783	121.199
0.0175792	121.548
0.0176807	121.899
0.0177828	122.25
0.0178855	122.603
0.0179887	122.956
0.0180926	123.31
0.018197	123.666
0.0183021	124.022
0.0184077	124.38
0.018514	124.738
0.0186209	125.097
0.0187284	125.458
0.0188365	125.82
0.0189452	126.182
0.0190546	126.546
0.0191646	126.911
0.0192752	127.277
0.0193865	127.644
0.0194984	128.011
0.019611	128.381
0.0197242	128.751
0.0198381	129.122
0.0199526	129.494
0.0200678	129.867
0.0201837	130.241
0.0203002	130.617
0.0204174	130.993
0.0205353	131.371
0.0206538	131.749
0.020773	132.129
0.020893	132.51
0.0210136	132.892
0.0211349	133.275
0.0212569	133.659
0.0213796	134.045
0.021503	134.431
0.0216272	134.818
0.021752	135.207
0.0218776	135.597
0.0220039	135.987
0.0221309	136.379
0.0222587	136.772
0.0223872	137.167
0.0225165	137.562
0.0226464	137.959
0.0227772	138.356
0.0229087	138.755
0.0230409	139.155
0.0231739	139.556
0.0233077	139.959
0.0234423	140.362
0.0235776	140.767
0.0237137	141.172
0.0238506	141.579
0.0239883	141.987
0.0241268	142.396
0.0242661	142.807
0.0244062	143.218
0.0245471	143.631
0.0246888	144.045
0.0248313	144.46
0.0249747	144.877
0.0251189	145.295
0.0252639	145.713
0.0254097	146.133
0.0255564	146.555
0.025704	146.977
0.0258523	147.401
0.0260016	147.825
0.0261517	148.251
0.0263027	148.679
0.0264545	149.107
0.0266073	149.537
0.0267609	149.968
0.0269153	150.401
0.0270707	150.834
0.027227	151.269
0.0273842	151.704
0.0275423	152.142
0.0277013	152.581
0.0278612	153.02
0.0280221	153.461
0.0281838	153.904
0.0283465	154.347
0.0285102	154.792
0.0286748	155.238
0.0288403	155.686
0.0290068	156.135
0.0291743	156.584
0.0293427	157.036
0.0295121	157.489
0.0296825	157.943
0.0298538	158.398
0.0300262	158.854
0.0301995	159.312
0.0303739	159.772
0.0305492	160.232
0.0307256	160.694
0.030903	161.157
0.0310814	161.622
0.0312608	162.087
0.0314413	162.554
0.0316228	163.023
0.0318053	163.493
0.031989	163.964
0.0321736	164.437
0.0323594	164.911
0.0325462	165.386
0.0327341	165.863
0.032923	166.341
0.0331131	166.82
0.0333043	167.301
0.0334965	167.783
0.0336899	168.267
0.0338844	168.752
0.03408	169.238
0.0342768	169.726
0.0344747	170.216
0.0346737	170.706
0.0348739	171.198
0.0350752	171.692
0.0352777	172.187
0.0354813	172.683
0.0356862	173.18
0.0358922	173.68
0.0360994	174.18
0.0363078	174.682
0.0365174	175.186
0.0367282	175.691
0.0369403	176.197
0.0371535	176.705
0.037368	177.215
0.0375837	177.725
0.0378007	178.238
0.0380189	178.751
0.0382384	179.266
0.0384592	179.783
0.0386812	180.302
0.0389045	180.821
0.0391291	181.342
0.039355	181.865
0.0395822	182.389
0.0398107	182.915
0.0400405	183.442
0.0402717	183.971
0.0405042	184.501
0.040738	185.033
0.0409732	185.566
0.0412098	186.101
0.0414477	186.638
0.0416869	187.175
0.0419276	187.715
0.0421697	188.256
0.0424131	188.798
0.042658	189.343
0.0429042	189.889
0.0431519	190.436
0.043401	190.985
0.0436516	191.535
0.0439036	192.087
0.044157	192.641
0.044412	193.196
0.0446684	193.753
0.0449262	194.311
0.0451856	194.872
0.0454465	195.434
0.0457088	195.997
0.0459727	196.562
0.0462381	197.128
0.046505	197.696
0.0467735	198.266
0.0470435	198.838
0.0473151	199.411
0.0475883	199.986
0.047863	200.562
0.0481393	201.14
0.0484172	201.72
0.0486968	202.302
0.0489779	202.884
0.0492606	203.47
0.049545	204.056
0.049831	204.644
0.0501187	205.234
0.0504081	205.826
0.0506991	206.419
0.0509918	207.014
0.0512861	207.61
0.0515822	208.209
0.05188	208.809
0.0521795	209.411
0.0524807	210.014
0.0527837	210.62
0.0530884	211.227
0.0533949	211.836
0.0537032	212.446
0.0540132	213.059
0.054325	213.673
0.0546387	214.288
0.0549541	214.906
0.0552713	215.526
0.0555904	216.147
0.0559114	216.77
0.0562341	217.395
0.0565588	218.022
0.0568853	218.65
0.0572137	219.28
0.057544	219.912
0.0578762	220.546
0.0582103	221.181
0.0585464	221.819
0.0588844	222.458
0.0592243	223.1
0.0595662	223.743
0.0599101	224.388
0.060256	225.035
0.0606038	225.683
0.0609537	226.334
0.0613056	226.986
0.0616595	227.64
0.0620155	228.296
0.0623735	228.955
0.0627336	229.614
0.0630957	230.276
0.06346	230.94
0.0638263	231.606
0.0641948	232.273
0.0645654	232.943
0.0649382	233.614
0.0653131	234.288
0.0656901	234.963
0.0660693	235.64
0.0664508	236.319
0.0668344	237
0.0672202	237.684
0.0676083	238.369
0.0679986	239.056
0.0683912	239.745
0.068786	240.436
0.0691831	241.129
0.0695825	241.824
0.0699842	242.521
0.0703882	243.22
0.0707946	243.921
0.0712033	244.624
0.0716143	245.329
0.0720278	246.036
0.0724436	246.745
0.0728618	247.456
0.0732825	248.17
0.0737055	248.885
0.074131	249.603
0.074559	250.322
0.0749894	251.043
0.0754223	251.767
0.0758578	252.493
0.0762957	253.221
0.0767361	253.951
0.0771792	254.682
0.0776247	255.417
0.0780728	256.153
0.0785236	256.891
0.0789769	257.632
0.0794328	258.374
0.0798914	259.119
0.0803526	259.866
0.0808165	260.615
0.0812831	261.366
0.0817523	262.119
0.0822243	262.875
0.082699	263.632
0.0831764	264.393
0.0836566	265.155
0.0841395	265.919
0.0846253	266.685
0.0851138	267.454
0.0856052	268.225
0.0860994	268.998
0.0865964	269.773
0.0870964	270.551
0.0875992	271.331
0.0881049	272.113
0.0886135	272.897
0.0891251	273.684
0.0896396	274.473
0.0901571	275.264
0.0906776	276.057
0.0912011	276.853
0.0917276	277.651
0.0922571	278.451
0.0927897	279.254
0.0933254	280.058
0.0938642	280.866
0.0944061	281.676
0.0949511	282.487
0.0954993	283.302
0.0960506	284.118
0.0966051	284.937
0.0971628	285.758
0.0977237	286.582
0.0982879	287.408
0.0988553	288.236
0.099426	289.067
0.1	289.901
0.100577	290.736
0.101158	291.574
0.101742	292.415
0.102329	293.257
0.10292	294.103
0.103514	294.95
0.104112	295.8
0.104713	296.653
0.105317	297.508
0.105925	298.366
0.106537	299.226
0.107152	300.088
0.107771	300.954
0.108393	301.821
0.109018	302.691
0.109648	303.563
0.110281	304.438
0.110917	305.316
0.111558	306.196
0.112202	307.078
0.11285	307.964
0.113501	308.851
0.114156	309.741
0.114815	310.634
0.115478	311.529
0.116145	312.427
0.116815	313.328
0.11749	314.231
0.118168	315.137
0.11885	316.045
0.119536	316.956
0.120226	317.87
0.120921	318.786
0.121619	319.705
0.122321	320.626
0.123027	321.551
0.123737	322.477
0.124451	323.407
0.12517	324.339
0.125893	325.274
0.126619	326.211
0.12735	327.152
0.128086	328.095
0.128825	329.04
0.129569	329.989
0.130317	330.94
0.131069	331.894
0.131826	332.85
0.132587	333.81
0.133352	334.772
0.134122	335.737
0.134896	336.705
0.135675	337.675
0.136458	338.649
0.137246	339.625
0.138038	340.603
0.138835	341.585
0.139637	342.57
0.140443	343.557
0.141254	344.547
0.142069	345.541
0.142889	346.537
0.143714	347.535
0.144544	348.537
0.145378	349.542
0.146218	350.549
0.147062	351.56
0.147911	352.573
0.148765	353.589
0.149624	354.608
0.150487	355.63
0.151356	356.655
0.15223	357.684
0.153109	358.715
0.153993	359.749
0.154882	360.785
0.155776	361.825
0.156675	362.868
0.15758	363.914
0.158489	364.963
0.159404	366.015
0.160325	367.07
0.16125	368.128
0.162181	369.189
0.163117	370.253
0.164059	371.32
0.165006	372.391
0.165959	373.464
0.166917	374.541
0.16788	375.62
0.16885	376.703
0.169824	377.789
0.170805	378.878
0.171791	379.97
0.172783	381.065
0.17378	382.164
0.174783	383.265
0.175792	384.357
0.176807	385.45
0.177828	386.546
0.178855	387.645
0.179887	388.748
0.180926	389.854
0.18197	390.964
0.183021	392.077
0.184077	393.193
0.18514	394.313
0.186209	395.437
0.187284	396.563
0.188365	397.693
0.189452	398.827
0.190546	399.964
0.191646	401.105
0.192752	402.248
0.193865	403.396
0.194984	404.546
0.19611	405.701
0.197242	406.858
0.198381	408.019
0.199526	409.183
0.200678	410.351
0.201837	411.521
0.203002	412.696
0.204174	413.873
0.205353	415.054
0.206538	416.238
0.20773	417.425
0.20893	418.616
0.210136	419.803
0.211349	420.943
0.212569	422.085
0.213796	423.23
0.21503	424.378
0.216272	425.529
0.21752	426.683
0.218776	427.84
0.220039	428.999
0.221309	430.162
0.222587	431.327
0.223872	432.494
0.225165	433.67
0.226464	434.886
0.227772	436.106
0.229087	437.33
0.230409	438.557
0.231739	439.789
0.233077	441.023
0.234423	442.262
0.235776	443.504
0.237137	444.75
0.238506	445.999
0.239883	447.252
0.241268	448.508
0.242661	449.768
0.244062	451.031
0.245471	452.297
0.246888	453.566
0.248313	454.839
0.249747	456.115
0.251189	457.394
0.252639	458.676
0.254097	459.961
0.255564	461.249
0.25704	462.54
0.258523	463.833
0.260016	465.13
0.261517	466.429
0.263027	467.73
0.264545	469.034
0.266073	470.341
0.267609	471.649
0.269153	472.96
0.270707	474.246
0.27227	475.501
0.273842	476.757
0.275423	478.035
0.277013	479.372
0.278612	480.713
0.280221	482.054
0.281838	483.385
0.283465	484.719
0.285102	486.057
0.286748	487.396
0.288403	488.739
0.290068	490.085
0.291743	491.433
0.293427	492.784
0.295121	494.137
0.296825	495.493
0.298538	496.852
0.300262	498.213
0.301995	499.577
0.303739	500.942
0.305492	502.31
0.307256	503.681
0.30903	505.053
0.310814	506.428
0.312608	507.804
0.314413	509.182
0.316228	510.563
0.318053	511.945
0.31989	513.328
0.321736	514.714
0.323594	516.101
0.325462	517.489
0.327341	518.879
0.32923	520.27
0.331131	521.633
0.333043	522.976
0.334965	524.319
0.336899	525.663
0.338844	527.008
0.3408	528.354
0.342768	529.699
0.344747	531.045
0.346737	532.391
0.348739	533.738
0.350752	535.084
0.352777	536.429
0.354813	537.775
0.356862	539.119
0.358922	540.463
0.360994	541.799
0.363078	543.125
0.365174	544.449
0.367282	545.773
0.369403	547.096
0.371535	548.417
0.37368	549.736
0.375837	551.055
0.378007	552.371
0.380189	553.686
0.382384	554.999
0.384592	556.31
0.386812	557.619
0.389045	558.927
0.391291	560.232
0.39355	561.535
0.395822	562.835
0.398107	564.134
0.400405	565.429
0.402717	566.723
0.405042	568.013
0.40738	569.301
0.409732	570.587
0.412098	571.869
0.414477	573.148
0.416869	574.425
0.419276	575.697
0.421697	576.967
0.424131	578.233
0.42658	579.496
0.429042	580.756
0.431519	582.011
0.43401	583.263
0.436516	584.511
0.439036	585.755
0.44157	586.986
0.44412	588.207
0.446684	589.425
0.449262	590.638
0.451856	591.846
0.454465	593.05
0.457088	594.25
0.459727	595.444
0.462381	596.635
0.46505	597.821
0.467735	599.002
0.470435	600.18
0.473151	601.352
0.475883	602.52
0.47863	603.683
0.481393	604.842
0.484172	605.996
0.486968	607.145
0.489779	608.29
0.492606	609.43
0.49545	610.565
0.49831	611.696
0.501187	612.821
0.504081	613.942
0.506991	615.058
0.509918	616.17
0.512861	617.276
0.515822	618.377
0.5188	619.474
0.521795	620.565
0.524807	621.652
0.527837	622.733
0.530884	623.81
0.533949	624.882
0.537032	625.949
0.540132	627.011
0.54325	628.068
0.546387	629.12
0.549541	630.167
0.552713	631.208
0.555904	632.245
0.559114	633.276
0.562341	634.303
0.565588	635.324
0.568853	636.34
0.572137	637.351
0.57544	638.357
0.578762	639.358
0.582103	640.353
0.585464	641.344
0.588844	642.329
0.592243	643.309
0.595662	644.284
0.599101	645.253
0.60256	646.218
0.606038	647.177
0.609537	648.131
0.613056	649.08
0.616595	650.023
0.620155	650.962
0.623735	651.895
0.627336	652.823
