E [MeV]	dEdx [keV/microm]
0.001	30.1342
0.00100577	30.2211
0.00101158	30.3082
0.00101742	30.3955
0.00102329	30.4832
0.0010292	30.571
0.00103514	30.6591
0.00104112	30.7475
0.00104713	30.8361
0.00105317	30.925
0.00105925	31.0141
0.00106537	31.1035
0.00107152	31.1932
0.00107771	31.2831
0.00108393	31.3733
0.00109018	31.4637
0.00109648	31.5544
0.00110281	31.6453
0.00110917	31.7366
0.00111558	31.828
0.00112202	31.9198
0.0011285	32.0118
0.00113501	32.104
0.00114156	32.1966
0.00114815	32.2894
0.00115478	32.3825
0.00116145	32.4758
0.00116815	32.5694
0.0011749	32.6633
0.00118168	32.7574
0.0011885	32.8518
0.00119536	32.9465
0.00120226	33.0415
0.00120921	33.1367
0.00121619	33.2323
0.00122321	33.328
0.00123027	33.4241
0.00123737	33.5204
0.00124451	33.6171
0.0012517	33.714
0.00125893	33.8111
0.00126619	33.9086
0.0012735	34.0063
0.00128086	34.1044
0.00128825	34.2026
0.00129569	34.3012
0.00130317	34.4001
0.00131069	34.4993
0.00131826	34.5987
0.00132587	34.6984
0.00133352	34.7984
0.00134122	34.8988
0.00134896	34.9993
0.00135675	35.1002
0.00136458	35.2014
0.00137246	35.3028
0.00138038	35.4046
0.00138835	35.5067
0.00139637	35.609
0.00140443	35.7116
0.00141254	35.8146
0.00142069	35.9178
0.00142889	36.0213
0.00143714	36.1252
0.00144544	36.2293
0.00145378	36.3337
0.00146218	36.4384
0.00147062	36.5435
0.00147911	36.6488
0.00148765	36.7544
0.00149624	36.8604
0.00150487	36.9666
0.00151356	37.0732
0.0015223	37.18
0.00153109	37.2872
0.00153993	37.3947
0.00154882	37.5025
0.00155776	37.6106
0.00156675	37.719
0.0015758	37.8277
0.00158489	37.9367
0.00159404	38.0461
0.00160325	38.1557
0.0016125	38.2657
0.00162181	38.376
0.00163117	38.4866
0.00164059	38.5975
0.00165006	38.7088
0.00165959	38.8204
0.00166917	38.9323
0.0016788	39.0445
0.0016885	39.157
0.00169824	39.2699
0.00170805	39.3831
0.00171791	39.4966
0.00172783	39.6105
0.0017378	39.7246
0.00174783	39.8391
0.00175792	39.9536
0.00176807	40.0679
0.00177828	40.1827
0.00178855	40.2977
0.00179887	40.4131
0.00180926	40.5288
0.0018197	40.6448
0.00183021	40.7613
0.00184077	40.8779
0.0018514	40.995
0.00186209	41.1124
0.00187284	41.2301
0.00188365	41.3482
0.00189452	41.4666
0.00190546	41.5853
0.00191646	41.7044
0.00192752	41.8238
0.00193865	41.9436
0.00194984	42.0637
0.0019611	42.1842
0.00197242	42.305
0.00198381	42.4262
0.00199526	42.5477
0.00200678	42.6696
0.00201837	42.7918
0.00203002	42.9143
0.00204174	43.0372
0.00205353	43.1605
0.00206538	43.2842
0.0020773	43.4081
0.0020893	43.5324
0.00210136	43.6572
0.00211349	43.7822
0.00212569	43.9077
0.00213796	44.0334
0.0021503	44.1596
0.00216272	44.2861
0.0021752	44.4129
0.00218776	44.5402
0.00220039	44.6678
0.00221309	44.7958
0.00222587	44.9241
0.00223872	45.0528
0.00225165	45.1819
0.00226464	45.3103
0.00227772	45.4391
0.00229087	45.5682
0.00230409	45.6977
0.00231739	45.8276
0.00233077	45.9578
0.00234423	46.0885
0.00235776	46.2195
0.00237137	46.3509
0.00238506	46.4826
0.00239883	46.6148
0.00241268	46.7473
0.00242661	46.8803
0.00244062	47.0135
0.00245471	47.1472
0.00246888	47.2813
0.00248313	47.4157
0.00249747	47.5505
0.00251189	47.6857
0.00252639	47.8214
0.00254097	47.9573
0.00255564	48.0937
0.0025704	48.2306
0.00258523	48.3677
0.00260016	48.5053
0.00261517	48.6433
0.00263027	48.7817
0.00264545	48.9205
0.00266073	49.0597
0.00267609	49.1992
0.00269153	49.3392
0.00270707	49.4796
0.0027227	49.6204
0.00273842	49.7616
0.00275423	49.9029
0.00277013	50.0435
0.00278612	50.1846
0.00280221	50.3261
0.00281838	50.4679
0.00283465	50.6103
0.00285102	50.753
0.00286748	50.8961
0.00288403	51.0396
0.00290068	51.1835
0.00291743	51.3279
0.00293427	51.4727
0.00295121	51.6179
0.00296825	51.7635
0.00298538	51.9095
0.00300262	52.056
0.00301995	52.2029
0.00303739	52.3502
0.00305492	52.4979
0.00307256	52.6461
0.0030903	52.7947
0.00310814	52.9437
0.00312608	53.0931
0.00314413	53.243
0.00316228	53.3933
0.00318053	53.5441
0.0031989	53.6952
0.00321736	53.8468
0.00323594	53.9989
0.00325462	54.1514
0.00327341	54.3043
0.0032923	54.4577
0.00331131	54.6115
0.00333043	54.7658
0.00334965	54.9205
0.00336899	55.0757
0.00338844	55.2313
0.003408	55.3873
0.00342768	55.5438
0.00344747	55.7008
0.00346737	55.8582
0.00348739	56.0161
0.00350752	56.1744
0.00352777	56.3332
0.00354813	56.4925
0.00356862	56.6522
0.00358922	56.8123
0.00360994	56.973
0.00363078	57.1341
0.00365174	57.2956
0.00367282	57.4576
0.00369403	57.6201
0.00371535	57.7831
0.0037368	57.9465
0.00375837	58.1105
0.00378007	58.2748
0.00380189	58.4397
0.00382384	58.605
0.00384592	58.7709
0.00386812	58.9372
0.00389045	59.104
0.00391291	59.2712
0.0039355	59.439
0.00395822	59.6072
0.00398107	59.7759
0.00400405	59.9451
0.00402717	60.1148
0.00405042	60.2851
0.0040738	60.4558
0.00409732	60.6269
0.00412098	60.7986
0.00414477	60.9708
0.00416869	61.1435
0.00419276	61.3166
0.00421697	61.4903
0.00424131	61.6645
0.0042658	61.8392
0.00429042	62.0144
0.00431519	62.1901
0.0043401	62.3663
0.00436516	62.543
0.00439036	62.7203
0.0044157	62.898
0.0044412	63.0763
0.00446684	63.2551
0.00449262	63.4344
0.00451856	63.6142
0.00454465	63.7946
0.00457088	63.9754
0.00459727	64.1568
0.00462381	64.3387
0.0046505	64.5212
0.00467735	64.7041
0.00470435	64.8877
0.00473151	65.0717
0.00475883	65.2563
0.0047863	65.4414
0.00481393	65.6271
0.00484172	65.8133
0.00486968	66
0.00489779	66.1873
0.00492606	66.3751
0.0049545	66.5634
0.0049831	66.7524
0.00501187	66.9418
0.00504081	67.1318
0.00506991	67.3224
0.00509918	67.5135
0.00512861	67.7052
0.00515822	67.8974
0.005188	68.0902
0.00521795	68.2836
0.00524807	68.4775
0.00527837	68.6719
0.00530884	68.867
0.00533949	69.0626
0.00537032	69.2588
0.00540132	69.4556
0.0054325	69.6529
0.00546387	69.8508
0.00549541	70.0493
0.00552713	70.2483
0.00555904	70.4479
0.00559114	70.6482
0.00562341	70.8489
0.00565588	71.0503
0.00568853	71.2523
0.00572137	71.4548
0.0057544	71.658
0.00578762	71.8617
0.00582103	72.066
0.00585464	72.271
0.00588844	72.4764
0.00592243	72.6826
0.00595662	72.8893
0.00599101	73.0966
0.0060256	73.3046
0.00606038	73.5131
0.00609537	73.7222
0.00613056	73.932
0.00616595	74.1423
0.00620155	74.3533
0.00623735	74.5649
0.00627336	74.7771
0.00630957	74.9899
0.006346	75.2033
0.00638263	75.4174
0.00641948	75.6321
0.00645654	75.8474
0.00649382	76.0633
0.00653131	76.2799
0.00656901	76.4971
0.00660693	76.715
0.00664508	76.9334
0.00668344	77.1525
0.00672202	77.3723
0.00676083	77.5927
0.00679986	77.8137
0.00683912	78.0354
0.0068786	78.2577
0.00691831	78.4807
0.00695825	78.7043
0.00699842	78.9286
0.00703882	79.1243
0.00707946	79.3016
0.00712033	79.4795
0.00716143	79.6581
0.00720278	79.8373
0.00724436	80.0171
0.00728618	80.1975
0.00732825	80.3786
0.00737055	80.5603
0.0074131	80.7426
0.0074559	80.9256
0.00749894	81.1091
0.00754223	81.2934
0.00758578	81.4782
0.00762957	81.6637
0.00767361	81.8497
0.00771792	82.0364
0.00776247	82.2238
0.00780728	82.4117
0.00785236	82.6003
0.00789769	82.7895
0.00794328	82.9793
0.00798914	83.1698
0.00803526	83.3609
0.00808165	83.5525
0.00812831	83.7449
0.00817523	83.9379
0.00822243	84.1314
0.0082699	84.3256
0.00831764	84.5204
0.00836566	84.7159
0.00841395	84.9119
0.00846253	85.1086
0.00851138	85.3059
0.00856052	85.5039
0.00860994	85.7027
0.00865964	85.9017
0.00870964	86.1018
0.00875992	86.3022
0.00881049	86.5033
0.00886135	86.7051
0.00891251	86.9072
0.00896396	87.1103
0.00901571	87.3066
0.00906776	87.445
0.00912011	87.5838
0.00917276	87.7232
0.00922571	87.8632
0.00927897	88.0036
0.00933254	88.1449
0.00938642	88.2865
0.00944061	88.4291
0.00949511	88.5719
0.00954993	88.7153
0.00960506	88.8594
0.00966051	89.0041
0.00971628	89.1494
0.00977237	89.2953
0.00982879	89.4414
0.00988553	89.5885
0.0099426	89.7359
0.01	89.8838
0.0100577	90.0327
0.0101158	90.1818
0.0101742	90.3315
0.0102329	90.4817
0.010292	90.6326
0.0103514	90.7837
0.0104112	90.9357
0.0104713	91.0883
0.0105317	91.2411
0.0105925	91.3948
0.0106537	91.5488
0.0107152	91.7036
0.0107771	91.8587
0.0108393	92.0143
0.0109018	92.1705
0.0109648	92.3276
0.0110281	92.4565
0.0110917	92.5304
0.0111558	92.6051
0.0112202	92.6804
0.011285	92.7559
0.0113501	92.8319
0.0114156	92.9085
0.0114815	92.9856
0.0115478	93.0629
0.0116145	93.1408
0.0116815	93.2192
0.011749	93.2981
0.0118168	93.3773
0.011885	93.4569
0.0119536	93.5372
0.0120226	93.6176
0.0120921	93.6989
0.0121619	93.78
0.0122321	93.862
0.0123027	93.9442
0.0123737	94.0269
0.0124451	94.1098
0.012517	94.1932
0.0125893	94.2772
0.0126619	94.3613
0.012735	94.446
0.0128086	94.5312
0.0128825	94.6166
0.0129569	94.7022
0.0130317	94.7886
0.0131069	94.8749
0.0131826	94.962
0.0132587	95.0493
0.0133352	95.1368
0.0134122	95.2248
0.0134896	95.3134
0.0135675	95.4021
0.0136458	95.4913
0.0137246	95.5808
0.0138038	95.6707
0.0138835	95.7608
0.0139637	95.8515
0.0140443	95.9423
0.0141254	96.0336
0.0142069	96.1251
0.0142889	96.2172
0.0143714	96.3094
0.0144544	96.4021
0.0145378	96.4951
0.0146218	96.5885
0.0147062	96.6821
0.0147911	96.7759
0.0148765	96.8702
0.0149624	96.9651
0.0150487	97.0601
0.0151356	97.1553
0.015223	97.251
0.0153109	97.3473
0.0153993	97.4433
0.0154882	97.5403
0.0155776	97.6371
0.0156675	97.7344
0.015758	97.8322
0.0158489	97.9303
0.0159404	98.0284
0.0160325	98.1272
0.016125	98.2261
0.0162181	98.3255
0.0163117	98.4251
0.0164059	98.525
0.0165006	98.6253
0.0165959	98.7258
0.0166917	98.8269
0.016788	98.9281
0.016885	99.0299
0.0169824	99.1315
0.0170805	99.234
0.0171791	99.3364
0.0172783	99.4396
0.017378	99.5427
0.0174783	99.6463
0.0175792	99.7502
0.0176807	99.8545
0.0177828	99.9589
0.0178855	100.064
0.0179887	100.169
0.0180926	100.275
0.018197	100.38
0.0183021	100.487
0.0184077	100.594
0.018514	100.7
0.0186209	100.807
0.0187284	100.915
0.0188365	101.023
0.0189452	101.131
0.0190546	101.24
0.0191646	101.348
0.0192752	101.458
0.0193865	101.568
0.0194984	101.678
0.019611	101.788
0.0197242	101.899
0.0198381	102.01
0.0199526	102.121
0.0200678	102.232
0.0201837	102.345
0.0203002	102.457
0.0204174	102.57
0.0205353	102.683
0.0206538	102.796
0.020773	102.91
0.020893	103.024
0.0210136	103.139
0.0211349	103.254
0.0212569	103.369
0.0213796	103.485
0.021503	103.601
0.0216272	103.717
0.021752	103.834
0.0218776	103.951
0.0220039	104.069
0.0221309	104.187
0.0222587	104.304
0.0223872	104.423
0.0225165	104.542
0.0226464	104.662
0.0227772	104.782
0.0229087	104.901
0.0230409	105.022
0.0231739	105.143
0.0233077	105.264
0.0234423	105.386
0.0235776	105.508
0.0237137	105.63
0.0238506	105.754
0.0239883	105.877
0.0241268	106.001
0.0242661	106.125
0.0244062	106.25
0.0245471	106.374
0.0246888	106.5
0.0248313	106.626
0.0249747	106.752
0.0251189	106.878
0.0252639	107.005
0.0254097	107.133
0.0255564	107.261
0.025704	107.389
0.0258523	107.518
0.0260016	107.647
0.0261517	107.777
0.0263027	107.907
0.0264545	108.038
0.0266073	108.169
0.0267609	108.3
0.0269153	108.432
0.0270707	108.564
0.027227	108.697
0.0273842	108.83
0.0275423	108.964
0.0277013	109.098
0.0278612	109.233
0.0280221	109.367
0.0281838	109.503
0.0283465	109.639
0.0285102	109.776
0.0286748	109.912
0.0288403	110.05
0.0290068	110.188
0.0291743	110.326
0.0293427	110.465
0.0295121	110.604
0.0296825	110.745
0.0298538	110.885
0.0300262	111.026
0.0301995	111.167
0.0303739	111.309
0.0305492	111.451
0.0307256	111.594
0.030903	111.737
0.0310814	111.881
0.0312608	112.025
0.0314413	112.17
0.0316228	112.316
0.0318053	112.461
0.031989	112.608
0.0321736	112.755
0.0323594	112.903
0.0325462	113.051
0.0327341	113.2
0.032923	113.349
0.0331131	113.498
0.0333043	113.649
0.0334965	113.799
0.0336899	113.951
0.0338844	114.102
0.03408	114.255
0.0342768	114.408
0.0344747	114.561
0.0346737	114.715
0.0348739	114.87
0.0350752	115.025
0.0352777	115.181
0.0354813	115.337
0.0356862	115.494
0.0358922	115.652
0.0360994	115.81
0.0363078	115.969
0.0365174	116.128
0.0367282	116.288
0.0369403	116.448
0.0371535	116.609
0.037368	116.771
0.0375837	116.933
0.0378007	117.096
0.0380189	117.26
0.0382384	117.423
0.0384592	117.588
0.0386812	117.754
0.0389045	117.919
0.0391291	118.086
0.039355	118.253
0.0395822	118.421
0.0398107	118.589
0.0400405	118.759
0.0402717	118.928
0.0405042	119.098
0.040738	119.27
0.0409732	119.441
0.0412098	119.613
0.0414477	119.786
0.0416869	119.96
0.0419276	120.134
0.0421697	120.309
0.0424131	120.484
0.042658	120.661
0.0429042	120.837
0.0431519	121.015
0.043401	121.193
0.0436516	121.372
0.0439036	121.552
0.044157	121.732
0.044412	121.913
0.0446684	122.094
0.0449262	122.277
0.0451856	122.46
0.0454465	122.643
0.0457088	122.828
0.0459727	123.013
0.0462381	123.199
0.046505	123.385
0.0467735	123.572
0.0470435	123.76
0.0473151	123.949
0.0475883	124.138
0.047863	124.328
0.0481393	124.519
0.0484172	124.71
0.0486968	124.903
0.0489779	125.096
0.0492606	125.289
0.049545	125.484
0.049831	125.679
0.0501187	125.875
0.0504081	126.072
0.0506991	126.269
0.0509918	126.467
0.0512861	126.666
0.0515822	126.866
0.05188	127.066
0.0521795	127.267
0.0524807	127.469
0.0527837	127.672
0.0530884	127.875
0.0533949	128.079
0.0537032	128.285
0.0540132	128.491
0.054325	128.697
0.0546387	128.905
0.0549541	129.113
0.0552713	129.322
0.0555904	129.531
0.0559114	129.742
0.0562341	129.953
0.0565588	130.166
0.0568853	130.378
0.0572137	130.592
0.057544	130.806
0.0578762	131.022
0.0582103	131.238
0.0585464	131.455
0.0588844	131.673
0.0592243	131.891
0.0595662	132.111
0.0599101	132.331
0.060256	132.552
0.0606038	132.774
0.0609537	132.997
0.0613056	133.22
0.0616595	133.445
0.0620155	133.67
0.0623735	133.896
0.0627336	134.123
0.0630957	134.351
0.06346	134.579
0.0638263	134.809
0.0641948	135.04
0.0645654	135.271
0.0649382	135.503
0.0653131	135.736
0.0656901	135.969
0.0660693	136.204
0.0664508	136.439
0.0668344	136.676
0.0672202	136.913
0.0676083	137.151
0.0679986	137.391
0.0683912	137.631
0.068786	137.872
0.0691831	138.113
0.0695825	138.356
0.0699842	138.599
0.0703882	138.844
0.0707946	139.089
0.0712033	139.335
0.0716143	139.582
0.0720278	139.83
0.0724436	140.079
0.0728618	140.329
0.0732825	140.58
0.0737055	140.831
0.074131	141.084
0.074559	141.337
0.0749894	141.592
0.0754223	141.847
0.0758578	142.103
0.0762957	142.36
0.0767361	142.619
0.0771792	142.878
0.0776247	143.138
0.0780728	143.398
0.0785236	143.66
0.0789769	143.923
0.0794328	144.187
0.0798914	144.451
0.0803526	144.717
0.0808165	144.983
0.0812831	145.251
0.0817523	145.519
0.0822243	145.789
0.082699	146.059
0.0831764	146.331
0.0836566	146.603
0.0841395	146.876
0.0846253	147.15
0.0851138	147.425
0.0856052	147.702
0.0860994	147.979
0.0865964	148.257
0.0870964	148.536
0.0875992	148.816
0.0881049	149.097
0.0886135	149.379
0.0891251	149.661
0.0896396	149.946
0.0901571	150.231
0.0906776	150.516
0.0912011	150.803
0.0917276	151.091
0.0922571	151.38
0.0927897	151.67
0.0933254	151.961
0.0938642	152.253
0.0944061	152.545
0.0949511	152.839
0.0954993	153.134
0.0960506	153.43
0.0966051	153.727
0.0971628	154.025
0.0977237	154.323
0.0982879	154.623
0.0988553	154.924
0.099426	155.226
0.1	155.529
0.100577	155.833
0.101158	156.137
0.101742	156.443
0.102329	156.75
0.10292	157.058
0.103514	157.367
0.104112	157.677
0.104713	157.988
0.105317	158.3
0.105925	158.613
0.106537	158.927
0.107152	159.242
0.107771	159.558
0.108393	159.875
0.109018	160.193
0.109648	160.512
0.110281	160.833
0.110917	161.154
0.111558	161.476
0.112202	161.799
0.11285	162.123
0.113501	162.449
0.114156	162.775
0.114815	163.102
0.115478	163.431
0.116145	163.76
0.116815	164.09
0.11749	164.422
0.118168	164.754
0.11885	165.088
0.119536	165.437
0.120226	165.823
0.120921	166.211
0.121619	166.601
0.122321	166.992
0.123027	167.384
0.123737	167.779
0.124451	168.175
0.12517	168.573
0.125893	168.972
0.126619	169.395
0.12735	169.855
0.128086	170.317
0.128825	170.78
0.129569	171.247
0.130317	171.716
0.131069	172.187
0.131826	172.661
0.132587	173.136
0.133352	173.615
0.134122	174.096
0.134896	174.579
0.135675	175.064
0.136458	175.553
0.137246	176.043
0.138038	176.536
0.138835	177.031
0.139637	177.53
0.140443	178.03
0.141254	178.533
0.142069	179.04
0.142889	179.547
0.143714	180.059
0.144544	180.572
0.145378	181.157
0.146218	181.747
0.147062	182.34
0.147911	182.936
0.148765	183.536
0.149624	184.14
0.150487	184.747
0.151356	185.357
0.15223	185.971
0.153109	186.589
0.153993	187.211
0.154882	187.835
0.155776	188.464
0.156675	189.096
0.15758	189.733
0.158489	190.373
0.159404	191.016
0.160325	191.664
0.16125	192.315
0.162181	192.97
0.163117	193.63
0.164059	194.293
0.165006	194.959
0.165959	195.63
0.166917	196.305
0.16788	196.984
0.16885	197.667
0.169824	198.354
0.170805	199.045
0.171791	199.741
0.172783	200.44
0.17378	201.144
0.174783	201.852
0.175792	202.564
0.176807	203.265
0.177828	203.958
0.178855	204.656
0.179887	205.357
0.180926	206.062
0.18197	206.771
0.183021	207.483
0.184077	208.2
0.18514	208.921
0.186209	209.646
0.187284	210.374
0.188365	211.107
0.189452	211.843
0.190546	212.585
0.191646	213.33
0.192752	214.079
0.193865	214.832
0.194984	215.59
0.19611	216.351
0.197242	217.117
0.198381	217.887
0.199526	218.662
0.200678	219.441
0.201837	220.223
0.203002	221.011
0.204174	221.803
0.205353	222.599
0.206538	223.4
0.20773	224.205
0.20893	225.015
0.210136	225.828
0.211349	226.647
0.212569	227.47
0.213796	228.298
0.21503	229.131
0.216272	229.967
0.21752	230.809
0.218776	231.656
0.220039	232.507
0.221309	233.363
0.222587	234.223
0.223872	235.088
0.225165	235.959
0.226464	236.831
0.227772	237.67
0.229087	238.513
0.230409	239.36
0.231739	240.212
0.233077	241.067
0.234423	241.927
0.235776	242.791
0.237137	243.659
0.238506	244.532
0.239883	245.409
0.241268	246.289
0.242661	247.175
0.244062	248.065
0.245471	248.959
0.246888	249.857
0.248313	250.76
0.249747	251.667
0.251189	252.579
0.252639	253.495
0.254097	254.415
0.255564	255.34
0.25704	256.27
0.258523	257.203
0.260016	258.142
0.261517	259.084
0.263027	260.032
0.264545	260.984
0.266073	261.94
0.267609	262.901
0.269153	263.867
0.270707	264.837
0.27227	265.812
0.273842	266.792
0.275423	267.776
0.277013	268.748
0.278612	269.686
0.280221	270.626
0.281838	271.571
0.283465	272.519
0.285102	273.47
0.286748	274.426
0.288403	275.385
0.290068	276.347
0.291743	277.314
0.293427	278.283
0.295121	279.257
0.296825	280.234
0.298538	281.215
0.300262	282.199
0.301995	283.187
0.303739	284.179
0.305492	285.174
0.307256	286.172
0.30903	287.175
0.310814	288.181
0.312608	289.19
0.314413	290.204
0.316228	291.22
0.318053	292.24
0.31989	293.264
0.321736	294.291
0.323594	295.322
0.325462	296.357
0.327341	297.395
0.32923	298.436
0.331131	299.481
0.333043	300.53
0.334965	301.582
0.336899	302.637
0.338844	303.696
0.3408	304.758
0.342768	305.824
0.344747	306.893
0.346737	307.966
0.348739	309.042
0.350752	310.121
0.352777	311.204
0.354813	312.291
0.356862	313.38
0.358922	314.473
0.360994	315.569
0.363078	316.669
0.365174	317.772
0.367282	318.878
0.369403	319.987
0.371535	321.1
0.37368	322.216
0.375837	323.335
0.378007	324.457
0.380189	325.582
0.382384	326.711
0.384592	327.843
0.386812	328.977
0.389045	330.115
0.391291	331.256
0.39355	332.4
0.395822	333.547
0.398107	334.698
0.400405	335.851
0.402717	337.007
0.405042	338.166
0.40738	339.328
0.409732	340.492
0.412098	341.66
0.414477	342.831
0.416869	344.004
0.419276	345.18
0.421697	346.359
0.424131	347.54
0.42658	348.725
0.429042	349.912
0.431519	351.102
0.43401	352.294
0.436516	353.489
0.439036	354.686
0.44157	355.886
0.44412	357.088
0.446684	358.293
0.449262	359.501
0.451856	360.711
0.454465	361.923
0.457088	363.137
0.459727	364.354
0.462381	365.573
0.46505	366.794
0.467735	368.018
0.470435	369.243
0.473151	370.471
0.475883	371.701
0.47863	372.933
0.481393	374.167
0.484172	375.403
0.486968	376.641
0.489779	377.88
0.492606	379.122
0.49545	380.365
0.49831	381.611
0.501187	382.858
0.504081	384.106
0.506991	385.356
0.509918	386.608
0.512861	387.861
0.515822	389.116
0.5188	390.372
0.521795	391.63
0.524807	392.889
0.527837	394.15
0.530884	395.411
0.533949	396.674
0.537032	397.938
0.540132	399.203
0.54325	400.469
0.546387	401.737
0.549541	403.005
0.552713	404.274
0.555904	405.544
0.559114	406.815
0.562341	408.086
0.565588	409.359
0.568853	410.632
0.572137	411.905
0.57544	413.179
0.578762	414.454
0.582103	415.729
0.585464	417.004
0.588844	418.28
0.592243	419.556
0.595662	420.832
0.599101	422.108
0.60256	423.385
0.606038	424.661
0.609537	425.937
0.613056	427.213
0.616595	428.489
0.620155	429.765
0.623735	431.041
0.627336	432.316
