Stopping power dEdx from Ionisation for Mg24[0.0] Z = 12 in G4_TISSUE_SOFT_ICRP, process name: ionIoni
E [MeV]	dEdx [MeV/mm]
0.001	55.1043
0.00100577	55.2631
0.00101158	55.4224
0.00101742	55.5822
0.00102329	55.7424
0.0010292	55.903
0.00103514	56.0642
0.00104112	56.2258
0.00104713	56.3878
0.00105317	56.5504
0.00105925	56.7134
0.00106537	56.8768
0.00107152	57.0408
0.00107771	57.2052
0.00108393	57.3701
0.00109018	57.5354
0.00109648	57.7013
0.00110281	57.8676
0.00110917	58.0344
0.00111558	58.2017
0.00112202	58.3694
0.0011285	58.5377
0.00113501	58.7064
0.00114156	58.8756
0.00114815	59.0453
0.00115478	59.2155
0.00116145	59.3862
0.00116815	59.5574
0.0011749	59.729
0.00118168	59.9012
0.0011885	60.0739
0.00119536	60.247
0.00120226	60.4207
0.00120921	60.5948
0.00121619	60.7695
0.00122321	60.9446
0.00123027	61.1203
0.00123737	61.2965
0.00124451	61.4732
0.0012517	61.6503
0.00125893	61.828
0.00126619	62.0063
0.0012735	62.185
0.00128086	62.3642
0.00128825	62.544
0.00129569	62.7242
0.00130317	62.905
0.00131069	63.0864
0.00131826	63.2682
0.00132587	63.4506
0.00133352	63.6335
0.00134122	63.8169
0.00134896	64.0008
0.00135675	64.1853
0.00136458	64.3703
0.00137246	64.5558
0.00138038	64.7419
0.00138835	64.9285
0.00139637	65.1157
0.00140443	65.3034
0.00141254	65.4916
0.00142069	65.6804
0.00142889	65.8697
0.00143714	66.0595
0.00144544	66.2499
0.00145378	66.4409
0.00146218	66.6324
0.00147062	66.8245
0.00147911	67.0171
0.00148765	67.2102
0.00149624	67.404
0.00150487	67.5983
0.00151356	67.7931
0.0015223	67.9885
0.00153109	68.1845
0.00153993	68.381
0.00154882	68.5781
0.00155776	68.7758
0.00156675	68.974
0.0015758	69.1728
0.00158489	69.3722
0.00159404	69.5722
0.00160325	69.7727
0.0016125	69.9738
0.00162181	70.1755
0.00163117	70.3778
0.00164059	70.5806
0.00165006	70.7841
0.00165959	70.9881
0.00166917	71.1927
0.0016788	71.3979
0.0016885	71.6037
0.00169824	71.8101
0.00170805	72.0171
0.00171791	72.2247
0.00172783	72.4328
0.0017378	72.6416
0.00174783	72.851
0.00175792	73.061
0.00176807	73.2716
0.00177828	73.4828
0.00178855	73.6946
0.00179887	73.907
0.00180926	74.12
0.0018197	74.3337
0.00183021	74.5479
0.00184077	74.7628
0.0018514	74.9783
0.00186209	75.1944
0.00187284	75.4111
0.00188365	75.6285
0.00189452	75.8465
0.00190546	76.0651
0.00191646	76.2844
0.00192752	76.5042
0.00193865	76.7247
0.00194984	76.9459
0.0019611	77.1677
0.00197242	77.3901
0.00198381	77.6132
0.00199526	77.8369
0.00200678	78.0612
0.00201837	78.2862
0.00203002	78.5119
0.00204174	78.7382
0.00205353	78.9652
0.00206538	79.1928
0.0020773	79.421
0.0020893	79.6499
0.00210136	79.8795
0.00211349	80.1098
0.00212569	80.3407
0.00213796	80.5722
0.0021503	80.8045
0.00216272	81.0374
0.0021752	81.271
0.00218776	81.5052
0.00220039	81.7402
0.00221309	81.9758
0.00222587	82.212
0.00223872	82.449
0.00225165	82.6867
0.00226464	82.925
0.00227772	83.164
0.00229087	83.4037
0.00230409	83.6441
0.00231739	83.8852
0.00233077	84.127
0.00234423	84.3695
0.00235776	84.6127
0.00237137	84.8566
0.00238506	85.1012
0.00239883	85.3465
0.00241268	85.5925
0.00242661	85.8392
0.00244062	86.0866
0.00245471	86.3347
0.00246888	86.5836
0.00248313	86.8331
0.00249747	87.0834
0.00251189	87.3344
0.00252639	87.5862
0.00254097	87.8386
0.00255564	88.0918
0.0025704	88.3457
0.00258523	88.6004
0.00260016	88.8557
0.00261517	89.1119
0.00263027	89.3687
0.00264545	89.6263
0.00266073	89.8846
0.00267609	90.1437
0.00269153	90.4035
0.00270707	90.6641
0.0027227	90.9255
0.00273842	91.1875
0.00275423	91.4504
0.00277013	91.714
0.00278612	91.9783
0.00280221	92.2434
0.00281838	92.5093
0.00283465	92.776
0.00285102	93.0434
0.00286748	93.3116
0.00288403	93.5805
0.00290068	93.8503
0.00291743	94.1208
0.00293427	94.3921
0.00295121	94.6641
0.00296825	94.937
0.00298538	95.2106
0.00300262	95.4851
0.00301995	95.7603
0.00303739	96.0363
0.00305492	96.3131
0.00307256	96.5907
0.0030903	96.8691
0.00310814	97.1484
0.00312608	97.4284
0.00314413	97.7092
0.00316228	97.9908
0.00318053	98.2733
0.0031989	98.5565
0.00321736	98.8406
0.00323594	99.1255
0.00325462	99.4112
0.00327341	99.6978
0.0032923	99.9851
0.00331131	100.273
0.00333043	100.562
0.00334965	100.852
0.00336899	101.143
0.00338844	101.434
0.003408	101.727
0.00342768	102.02
0.00344747	102.314
0.00346737	102.609
0.00348739	102.905
0.00350752	103.201
0.00352777	103.499
0.00354813	103.797
0.00356862	104.096
0.00358922	104.396
0.00360994	104.697
0.00363078	104.999
0.00365174	105.302
0.00367282	105.605
0.00369403	105.91
0.00371535	106.215
0.0037368	106.521
0.00375837	106.828
0.00378007	107.136
0.00380189	107.445
0.00382384	107.755
0.00384592	108.065
0.00386812	108.377
0.00389045	108.689
0.00391291	109.002
0.0039355	109.316
0.00395822	109.632
0.00398107	109.948
0.00400405	110.264
0.00402717	110.582
0.00405042	110.901
0.0040738	111.221
0.00409732	111.541
0.00412098	111.863
0.00414477	112.185
0.00416869	112.509
0.00419276	112.833
0.00421697	113.158
0.00424131	113.484
0.0042658	113.811
0.00429042	114.139
0.00431519	114.468
0.0043401	114.798
0.00436516	115.129
0.00439036	115.461
0.0044157	115.794
0.0044412	116.128
0.00446684	116.462
0.00449262	116.798
0.00451856	117.135
0.00454465	117.472
0.00457088	117.811
0.00459727	118.15
0.00462381	118.491
0.0046505	118.833
0.00467735	119.175
0.00470435	119.519
0.00473151	119.863
0.00475883	120.209
0.0047863	120.555
0.00481393	120.903
0.00484172	121.251
0.00486968	121.601
0.00489779	121.951
0.00492606	122.303
0.0049545	122.655
0.0049831	123.009
0.00501187	123.363
0.00504081	123.719
0.00506991	124.075
0.00509918	124.433
0.00512861	124.792
0.00515822	125.151
0.005188	125.512
0.00521795	125.874
0.00524807	126.237
0.00527837	126.601
0.00530884	126.965
0.00533949	127.331
0.00537032	127.698
0.00540132	128.066
0.0054325	128.436
0.00546387	128.806
0.00549541	129.177
0.00552713	129.549
0.00555904	129.923
0.00559114	130.297
0.00562341	130.673
0.00565588	131.05
0.00568853	131.427
0.00572137	131.806
0.0057544	132.186
0.00578762	132.567
0.00582103	132.949
0.00585464	133.332
0.00588844	133.717
0.00592243	134.102
0.00595662	134.489
0.00599101	134.876
0.0060256	135.256
0.00606038	135.636
0.00609537	136.018
0.00613056	136.401
0.00616595	136.784
0.00620155	137.169
0.00623735	137.555
0.00627336	137.942
0.00630957	138.33
0.006346	138.72
0.00638263	139.11
0.00641948	139.502
0.00645654	139.894
0.00649382	140.288
0.00653131	140.683
0.00656901	141.079
0.00660693	141.476
0.00664508	141.875
0.00668344	142.274
0.00672202	142.675
0.00676083	143.077
0.00679986	143.48
0.00683912	143.884
0.0068786	144.289
0.00691831	144.695
0.00695825	145.103
0.00699842	145.512
0.00703882	145.922
0.00707946	146.333
0.00712033	146.745
0.00716143	147.159
0.00720278	147.574
0.00724436	147.99
0.00728618	148.407
0.00732825	148.825
0.00737055	149.245
0.0074131	149.665
0.0074559	150.087
0.00749894	150.511
0.00754223	150.935
0.00758578	151.361
0.00762957	151.787
0.00767361	152.215
0.00771792	152.645
0.00776247	153.075
0.00780728	153.507
0.00785236	153.94
0.00789769	154.375
0.00794328	154.81
0.00798914	155.247
0.00803526	155.685
0.00808165	156.124
0.00812831	156.565
0.00817523	157.007
0.00822243	157.45
0.0082699	157.894
0.00831764	158.34
0.00836566	158.787
0.00841395	159.235
0.00846253	159.685
0.00851138	160.136
0.00856052	160.588
0.00860994	161.042
0.00865964	161.496
0.00870964	161.953
0.00875992	162.41
0.00881049	162.869
0.00886135	163.329
0.00891251	163.79
0.00896396	164.253
0.00901571	164.717
0.00906776	165.183
0.00912011	165.649
0.00917276	166.118
0.00922571	166.587
0.00927897	167.058
0.00933254	167.53
0.00938642	168.004
0.00944061	168.479
0.00949511	168.955
0.00954993	169.433
0.00960506	169.912
0.00966051	170.392
0.00971628	170.874
0.00977237	171.357
0.00982879	171.842
0.00988553	172.328
0.0099426	172.816
0.01	173.304
0.0100577	173.795
0.0101158	174.286
0.0101742	174.78
0.0102329	175.274
0.010292	175.77
0.0103514	176.268
0.0104112	176.766
0.0104713	177.267
0.0105317	177.769
0.0105925	178.272
0.0106537	178.776
0.0107152	179.283
0.0107771	179.79
0.0108393	180.299
0.0109018	180.81
0.0109648	181.322
0.0110281	181.835
0.0110917	182.351
0.0111558	182.867
0.0112202	183.385
0.011285	183.905
0.0113501	184.426
0.0114156	184.948
0.0114815	185.472
0.0115478	185.998
0.0116145	186.525
0.0116815	187.053
0.011749	187.584
0.0118168	188.115
0.011885	188.649
0.0119536	189.183
0.0120226	189.72
0.0120921	190.258
0.0121619	190.797
0.0122321	191.338
0.0123027	191.881
0.0123737	192.425
0.0124451	192.971
0.012517	193.518
0.0125893	194.067
0.0126619	194.617
0.012735	195.169
0.0128086	195.723
0.0128825	196.279
0.0129569	196.835
0.0130317	197.394
0.0131069	197.954
0.0131826	198.516
0.0132587	199.079
0.0133352	199.645
0.0134122	200.211
0.0134896	200.78
0.0135675	201.35
0.0136458	201.921
0.0137246	202.495
0.0138038	203.07
0.0138835	203.646
0.0139637	204.225
0.0140443	204.805
0.0141254	205.387
0.0142069	205.97
0.0142889	206.555
0.0143714	207.142
0.0144544	207.73
0.0145378	208.321
0.0146218	208.913
0.0147062	209.506
0.0147911	210.102
0.0148765	210.699
0.0149624	211.298
0.0150487	211.898
0.0151356	212.501
0.015223	213.105
0.0153109	213.711
0.0153993	214.319
0.0154882	214.928
0.0155776	215.539
0.0156675	216.152
0.015758	216.767
0.0158489	217.383
0.0159404	218.002
0.0160325	218.622
0.016125	219.244
0.0162181	219.868
0.0163117	220.493
0.0164059	221.121
0.0165006	221.75
0.0165959	222.381
0.0166917	223.014
0.016788	223.649
0.016885	224.285
0.0169824	224.924
0.0170805	225.564
0.0171791	226.206
0.0172783	226.85
0.017378	227.496
0.0174783	228.144
0.0175792	228.794
0.0176807	229.446
0.0177828	230.099
0.0178855	230.755
0.0179887	231.412
0.0180926	232.071
0.018197	232.732
0.0183021	233.395
0.0184077	234.06
0.018514	234.727
0.0186209	235.396
0.0187284	236.067
0.0188365	236.74
0.0189452	237.415
0.0190546	238.092
0.0191646	238.771
0.0192752	239.451
0.0193865	240.134
0.0194984	240.819
0.019611	241.505
0.0197242	242.194
0.0198381	242.885
0.0199526	243.578
0.0200678	244.272
0.0201837	244.969
0.0203002	245.668
0.0204174	246.369
0.0205353	247.072
0.0206538	247.777
0.020773	248.484
0.020893	249.193
0.0210136	249.904
0.0211349	250.618
0.0212569	251.333
0.0213796	252.05
0.021503	252.77
0.0216272	253.492
0.021752	254.215
0.0218776	254.941
0.0220039	255.669
0.0221309	256.399
0.0222587	257.132
0.0223872	257.866
0.0225165	258.603
0.0226464	259.341
0.0227772	260.082
0.0229087	260.825
0.0230409	261.571
0.0231739	262.318
0.0233077	263.068
0.0234423	263.819
0.0235776	264.573
0.0237137	265.33
0.0238506	266.088
0.0239883	266.807
0.0241268	266.983
0.0242661	267.162
0.0244062	267.342
0.0245471	267.525
0.0246888	267.709
0.0248313	267.895
0.0249747	268.083
0.0251189	268.272
0.0252639	268.464
0.0254097	268.657
0.0255564	268.852
0.025704	269.048
0.0258523	269.246
0.0260016	269.446
0.0261517	269.647
0.0263027	269.85
0.0264545	270.055
0.0266073	270.261
0.0267609	270.469
0.0269153	270.678
0.0270707	270.889
0.027227	271.101
0.0273842	271.314
0.0275423	271.529
0.0277013	271.746
0.0278612	271.964
0.0280221	272.183
0.0281838	272.404
0.0283465	272.626
0.0285102	272.849
0.0286748	273.074
0.0288403	273.3
0.0290068	273.527
0.0291743	273.755
0.0293427	273.985
0.0295121	274.216
0.0296825	274.449
0.0298538	274.682
0.0300262	274.917
0.0301995	275.153
0.0303739	275.39
0.0305492	275.629
0.0307256	275.868
0.030903	276.109
0.0310814	276.351
0.0312608	276.594
0.0314413	276.838
0.0316228	277.083
0.0318053	277.33
0.031989	277.577
0.0321736	277.826
0.0323594	278.075
0.0325462	278.326
0.0327341	278.578
0.032923	278.831
0.0331131	279.084
0.0333043	279.339
0.0334965	279.595
0.0336899	279.852
0.0338844	280.11
0.03408	280.369
0.0342768	280.629
0.0344747	280.89
0.0346737	281.152
0.0348739	281.415
0.0350752	281.679
0.0352777	281.944
0.0354813	282.21
0.0356862	282.477
0.0358922	282.745
0.0360994	283.014
0.0363078	283.284
0.0365174	283.554
0.0367282	283.826
0.0369403	284.099
0.0371535	284.372
0.037368	284.647
0.0375837	284.922
0.0378007	285.198
0.0380189	285.476
0.0382384	285.754
0.0384592	286.033
0.0386812	286.313
0.0389045	286.594
0.0391291	286.876
0.039355	287.159
0.0395822	287.442
0.0398107	287.727
0.0400405	288.012
0.0402717	288.299
0.0405042	288.586
0.040738	288.874
0.0409732	289.164
0.0412098	289.454
0.0414477	289.744
0.0416869	290.036
0.0419276	290.329
0.0421697	290.623
0.0424131	290.917
0.042658	291.213
0.0429042	291.509
0.0431519	291.806
0.043401	292.105
0.0436516	292.404
0.0439036	292.704
0.044157	293.005
0.044412	293.306
0.0446684	293.609
0.0449262	293.913
0.0451856	294.217
0.0454465	294.523
0.0457088	294.829
0.0459727	295.137
0.0462381	295.445
0.046505	295.754
0.0467735	296.064
0.0470435	296.375
0.0473151	296.687
0.0475883	297
0.047863	297.314
0.0481393	297.629
0.0484172	297.945
0.0486968	298.261
0.0489779	298.579
0.0492606	298.898
0.049545	299.217
0.049831	299.538
0.0501187	299.859
0.0504081	300.182
0.0506991	300.505
0.0509918	300.83
0.0512861	301.155
0.0515822	301.482
0.05188	301.809
0.0521795	302.137
0.0524807	302.467
0.0527837	302.797
0.0530884	303.129
0.0533949	303.461
0.0537032	303.795
0.0540132	304.129
0.054325	304.465
0.0546387	304.801
0.0549541	305.139
0.0552713	305.477
0.0555904	305.817
0.0559114	306.158
0.0562341	306.5
0.0565588	306.843
0.0568853	307.187
0.0572137	307.532
0.057544	307.878
0.0578762	308.225
0.0582103	308.573
0.0585464	308.923
0.0588844	309.273
0.0592243	309.625
0.0595662	309.978
0.0599101	310.331
0.060256	310.687
0.0606038	311.043
0.0609537	311.4
0.0613056	311.758
0.0616595	312.118
0.0620155	312.479
0.0623735	312.841
0.0627336	313.204
0.0630957	313.568
0.06346	313.934
0.0638263	314.3
0.0641948	314.668
0.0645654	315.037
0.0649382	315.408
0.0653131	315.779
0.0656901	316.152
0.0660693	316.526
0.0664508	316.901
0.0668344	317.278
0.0672202	317.656
0.0676083	318.035
0.0679986	318.415
0.0683912	318.797
0.068786	319.18
0.0691831	319.564
0.0695825	319.949
0.0699842	320.336
0.0703882	320.724
0.0707946	321.114
0.0712033	321.504
0.0716143	321.897
0.0720278	322.29
0.0724436	322.685
0.0728618	323.081
0.0732825	323.479
0.0737055	323.878
0.074131	324.278
0.074559	324.68
0.0749894	325.083
0.0754223	325.487
0.0758578	325.893
0.0762957	326.301
0.0767361	326.709
0.0771792	327.12
0.0776247	327.531
0.0780728	327.945
0.0785236	328.359
0.0789769	328.775
0.0794328	329.193
0.0798914	329.612
0.0803526	330.032
0.0808165	330.455
0.0812831	330.878
0.0817523	331.303
0.0822243	331.73
0.082699	332.158
0.0831764	332.588
0.0836566	333.019
0.0841395	333.452
0.0846253	333.886
0.0851138	334.322
0.0856052	334.76
0.0860994	335.199
0.0865964	335.64
0.0870964	336.082
0.0875992	336.526
0.0881049	336.972
0.0886135	337.419
0.0891251	337.868
0.0896396	338.318
0.0901571	338.771
0.0906776	339.225
0.0912011	339.68
0.0917276	340.137
0.0922571	340.596
0.0927897	341.057
0.0933254	341.519
0.0938642	341.983
0.0944061	342.449
0.0949511	342.917
0.0954993	343.386
0.0960506	343.857
0.0966051	344.33
0.0971628	344.805
0.0977237	345.281
0.0982879	345.759
0.0988553	346.239
0.099426	346.721
0.1	347.204
0.100577	347.69
0.101158	348.177
0.101742	348.666
0.102329	349.157
0.10292	349.65
0.103514	350.144
0.104112	350.641
0.104713	351.139
0.105317	351.639
0.105925	352.141
0.106537	352.646
0.107152	353.151
0.107771	353.659
0.108393	354.169
0.109018	354.681
0.109648	355.195
0.110281	355.71
0.110917	356.228
0.111558	356.748
0.112202	357.269
0.11285	357.793
0.113501	358.318
0.114156	358.846
0.114815	359.376
0.115478	359.907
0.116145	360.441
0.116815	360.977
0.11749	361.514
0.118168	362.054
0.11885	362.596
0.119536	363.14
0.120226	363.686
0.120921	364.234
0.121619	364.784
0.122321	365.337
0.123027	365.891
0.123737	366.448
0.124451	367.006
0.12517	367.567
0.125893	368.13
0.126619	368.696
0.12735	369.263
0.128086	369.832
0.128825	370.404
0.129569	370.978
0.130317	371.554
0.131069	372.132
0.131826	372.713
0.132587	373.296
0.133352	373.881
0.134122	374.468
0.134896	375.057
0.135675	375.649
0.136458	376.243
0.137246	376.839
0.138038	377.438
0.138835	378.039
0.139637	378.642
0.140443	379.247
0.141254	379.855
0.142069	380.465
0.142889	381.078
0.143714	381.693
0.144544	382.31
0.145378	382.929
0.146218	383.551
0.147062	384.175
0.147911	384.802
0.148765	385.431
0.149624	386.062
0.150487	386.696
0.151356	387.332
0.15223	387.971
0.153109	388.612
0.153993	389.255
0.154882	389.901
0.155776	390.55
0.156675	391.201
0.15758	391.854
0.158489	392.51
0.159404	393.168
0.160325	393.829
0.16125	394.492
0.162181	395.158
0.163117	395.826
0.164059	396.497
0.165006	397.171
0.165959	397.846
0.166917	398.525
0.16788	399.206
0.16885	399.889
0.169824	400.576
0.170805	401.264
0.171791	401.956
0.172783	402.65
0.17378	403.346
0.174783	404.045
0.175792	404.747
0.176807	405.451
0.177828	406.158
0.178855	406.868
0.179887	407.58
0.180926	408.295
0.18197	409.013
0.183021	409.733
0.184077	410.456
0.18514	411.181
0.186209	411.909
0.187284	412.64
0.188365	413.374
0.189452	414.11
0.190546	414.85
0.191646	415.591
0.192752	416.336
0.193865	417.083
0.194984	417.833
0.19611	418.586
0.197242	419.342
0.198381	420.1
0.199526	420.861
0.200678	421.625
0.201837	422.391
0.203002	423.161
0.204174	423.933
0.205353	424.708
0.206538	425.486
0.20773	426.266
0.20893	427.05
0.210136	427.836
0.211349	428.625
0.212569	429.417
0.213796	430.212
0.21503	431.01
0.216272	431.81
0.21752	432.614
0.218776	433.42
0.220039	434.229
0.221309	435.041
0.222587	435.856
0.223872	436.674
0.225165	437.495
0.226464	438.318
0.227772	439.145
0.229087	439.974
0.230409	440.807
0.231739	441.642
0.233077	442.48
0.234423	443.321
0.235776	444.165
0.237137	445.013
0.238506	445.863
0.239883	446.716
0.241268	447.572
0.242661	448.431
0.244062	449.292
0.245471	450.157
0.246888	451.025
0.248313	451.896
0.249747	452.77
0.251189	453.647
0.252639	454.527
0.254097	455.41
0.255564	456.295
0.25704	457.184
0.258523	458.076
0.260016	458.971
0.261517	459.869
0.263027	460.77
0.264545	461.674
0.266073	462.581
0.267609	463.492
0.269153	464.405
0.270707	465.321
0.27227	466.24
0.273842	467.163
0.275423	468.088
0.277013	469.017
0.278612	469.948
0.280221	470.883
0.281838	471.821
0.283465	472.761
0.285102	473.705
0.286748	474.652
0.288403	475.602
0.290068	476.555
0.291743	477.511
0.293427	478.471
0.295121	479.433
0.296825	480.399
0.298538	481.367
0.300262	482.339
0.301995	483.314
0.303739	484.292
0.305492	485.273
0.307256	486.257
0.30903	487.244
0.310814	488.234
0.312608	489.228
0.314413	490.224
0.316228	491.224
0.318053	492.227
0.31989	493.233
0.321736	494.242
0.323594	495.254
0.325462	496.269
0.327341	497.287
0.32923	498.309
0.331131	499.333
0.333043	500.361
0.334965	501.392
0.336899	502.426
0.338844	503.463
0.3408	504.503
0.342768	505.546
0.344747	506.592
0.346737	507.642
0.348739	508.694
0.350752	509.75
0.352777	510.809
0.354813	511.87
0.356862	512.935
0.358922	514.003
0.360994	515.075
0.363078	516.149
0.365174	517.226
0.367282	518.306
0.369403	519.39
0.371535	520.476
0.37368	521.566
0.375837	522.659
0.378007	523.754
0.380189	524.853
0.382384	525.955
0.384592	527.06
0.386812	528.168
0.389045	529.279
0.391291	530.393
0.39355	531.51
0.395822	532.63
0.398107	533.753
0.400405	534.879
0.402717	536.008
0.405042	537.14
0.40738	538.276
0.409732	539.414
0.412098	540.555
0.414477	541.699
0.416869	542.846
0.419276	543.996
0.421697	545.149
0.424131	546.305
0.42658	547.463
0.429042	548.625
0.431519	549.79
0.43401	550.957
0.436516	552.128
0.439036	553.301
0.44157	554.477
0.44412	555.656
0.446684	556.838
0.449262	558.023
0.451856	560.041
0.454465	562.36
0.457088	564.694
0.459727	567.045
0.462381	569.412
0.46505	571.796
0.467735	574.196
0.470435	576.612
0.473151	579.046
0.475883	581.496
0.47863	583.964
0.481393	586.448
0.484172	588.95
0.486968	591.47
0.489779	594.007
0.492606	596.562
0.49545	599.135
0.49831	601.726
0.501187	604.335
0.504081	606.963
0.506991	609.609
0.509918	612.274
0.512861	614.958
0.515822	617.661
0.5188	620.383
0.521795	623.124
0.524807	625.885
0.527837	628.665
0.530884	631.465
0.533949	634.285
0.537032	637.126
0.540132	639.986
0.54325	642.867
0.546387	645.769
0.549541	648.692
0.552713	651.635
0.555904	654.6
0.559114	657.586
0.562341	660.594
0.565588	663.623
0.568853	666.674
0.572137	669.748
0.57544	672.843
0.578762	675.961
0.582103	679.102
0.585464	682.265
0.588844	685.452
0.592243	688.662
0.595662	691.895
0.599101	695.151
0.60256	698.418
0.606038	701.212
