Stopping power dEdx from Ionisation for mu+ Z = 0 in G4_TISSUE_SOFT_ICRP, process name: muIoni
E [MeV]	dEdx [MeV/mm]
0.001	51.4809
0.00100577	51.6293
0.00101158	51.7781
0.00101742	51.9274
0.00102329	52.0771
0.0010292	52.2272
0.00103514	52.3777
0.00104112	52.5287
0.00104713	52.6801
0.00105317	52.8319
0.00105925	52.9842
0.00106537	53.1369
0.00107152	53.2901
0.00107771	53.4437
0.00108393	53.5977
0.00109018	53.7522
0.00109648	53.9072
0.00110281	54.0625
0.00110917	54.2184
0.00111558	54.3746
0.00112202	54.5314
0.0011285	54.6886
0.00113501	54.8439
0.00114156	54.9815
0.00114815	55.1193
0.00115478	55.2574
0.00116145	55.3957
0.00116815	55.5344
0.0011749	55.6733
0.00118168	55.8125
0.0011885	55.952
0.00119536	56.0918
0.00120226	56.2319
0.00120921	56.3722
0.00121619	56.5128
0.00122321	56.6537
0.00123027	56.7949
0.00123737	56.9363
0.00124451	57.078
0.0012517	57.22
0.00125893	57.3623
0.00126619	57.5049
0.0012735	57.6477
0.00128086	57.7908
0.00128825	57.9342
0.00129569	58.0779
0.00130317	58.2218
0.00131069	58.366
0.00131826	58.5105
0.00132587	58.6552
0.00133352	58.8002
0.00134122	58.9455
0.00134896	59.0911
0.00135675	59.2369
0.00136458	59.383
0.00137246	59.5294
0.00138038	59.6761
0.00138835	59.823
0.00139637	59.9702
0.00140443	60.1176
0.00141254	60.2653
0.00142069	60.4133
0.00142889	60.5616
0.00143714	60.7101
0.00144544	60.8588
0.00145378	61.0079
0.00146218	61.1572
0.00147062	61.3067
0.00147911	61.4566
0.00148765	61.6067
0.00149624	61.757
0.00150487	61.9076
0.00151356	62.0585
0.0015223	62.2096
0.00153109	62.3609
0.00153993	62.5126
0.00154882	62.6644
0.00155776	62.8166
0.00156675	62.969
0.0015758	63.1216
0.00158489	63.2745
0.00159404	63.4276
0.00160325	63.581
0.0016125	63.7346
0.00162181	63.8885
0.00163117	64.0426
0.00164059	64.197
0.00165006	64.3516
0.00165959	64.5064
0.00166917	64.6615
0.0016788	64.8168
0.0016885	64.9724
0.00169824	65.1282
0.00170805	65.2842
0.00171791	65.4405
0.00172783	65.597
0.0017378	65.7537
0.00174783	65.9107
0.00175792	66.0679
0.00176807	66.2253
0.00177828	66.383
0.00178855	66.5408
0.00179887	66.6989
0.00180926	66.8572
0.0018197	67.0158
0.00183021	67.1745
0.00184077	67.3335
0.0018514	67.4926
0.00186209	67.652
0.00187284	67.8116
0.00188365	67.9714
0.00189452	68.1315
0.00190546	68.2917
0.00191646	68.4521
0.00192752	68.6128
0.00193865	68.7736
0.00194984	68.9346
0.0019611	69.0959
0.00197242	69.2573
0.00198381	69.4189
0.00199526	69.5807
0.00200678	69.7427
0.00201837	69.9049
0.00203002	70.0673
0.00204174	70.2298
0.00205353	70.3926
0.00206538	70.5555
0.0020773	70.7186
0.0020893	70.8819
0.00210136	71.0453
0.00211349	71.2089
0.00212569	71.3727
0.00213796	71.5366
0.0021503	71.7007
0.00216272	71.865
0.0021752	72.0294
0.00218776	72.194
0.00220039	72.3588
0.00221309	72.5237
0.00222587	72.6887
0.00223872	72.8539
0.00225165	73.0192
0.00226464	73.1847
0.00227772	73.3503
0.00229087	73.516
0.00230409	73.6819
0.00231739	73.8479
0.00233077	74.014
0.00234423	74.1803
0.00235776	74.3467
0.00237137	74.5131
0.00238506	74.6798
0.00239883	74.8465
0.00241268	75.0133
0.00242661	75.1802
0.00244062	75.3473
0.00245471	75.5144
0.00246888	75.6817
0.00248313	75.849
0.00249747	76.0164
0.00251189	76.1839
0.00252639	76.3515
0.00254097	76.5192
0.00255564	76.687
0.0025704	76.8548
0.00258523	77.0227
0.00260016	77.1906
0.00261517	77.3587
0.00263027	77.5268
0.00264545	77.6949
0.00266073	77.8631
0.00267609	78.0313
0.00269153	78.1996
0.00270707	78.368
0.0027227	78.5363
0.00273842	78.7047
0.00275423	78.8732
0.00277013	79.0416
0.00278612	79.2101
0.00280221	79.3786
0.00281838	79.5471
0.00283465	79.7156
0.00285102	79.8842
0.00286748	80.0527
0.00288403	80.2212
0.00290068	80.3897
0.00291743	80.5582
0.00293427	80.7267
0.00295121	80.8952
0.00296825	81.0636
0.00298538	81.232
0.00300262	81.4004
0.00301995	81.5688
0.00303739	81.7371
0.00305492	81.9053
0.00307256	82.0735
0.0030903	82.2417
0.00310814	82.4097
0.00312608	82.5778
0.00314413	82.7457
0.00316228	82.9136
0.00318053	83.0814
0.0031989	83.2491
0.00321736	83.4167
0.00323594	83.5842
0.00325462	83.7516
0.00327341	83.9189
0.0032923	84.0861
0.00331131	84.2532
0.00333043	84.4201
0.00334965	84.587
0.00336899	84.7536
0.00338844	84.9202
0.003408	85.0866
0.00342768	85.2529
0.00344747	85.419
0.00346737	85.5849
0.00348739	85.7507
0.00350752	85.9163
0.00352777	86.0817
0.00354813	86.247
0.00356862	86.4121
0.00358922	86.5769
0.00360994	86.7416
0.00363078	86.906
0.00365174	87.0703
0.00367282	87.2343
0.00369403	87.3981
0.00371535	87.5617
0.0037368	87.725
0.00375837	87.8881
0.00378007	88.0509
0.00380189	88.2135
0.00382384	88.3758
0.00384592	88.5379
0.00386812	88.6997
0.00389045	88.8612
0.00391291	89.0224
0.0039355	89.1833
0.00395822	89.3439
0.00398107	89.5042
0.00400405	89.6642
0.00402717	89.8239
0.00405042	89.9832
0.0040738	90.1422
0.00409732	90.3009
0.00412098	90.4592
0.00414477	90.6172
0.00416869	90.7748
0.00419276	90.932
0.00421697	91.0889
0.00424131	91.2453
0.0042658	91.4014
0.00429042	91.5571
0.00431519	91.7124
0.0043401	91.8673
0.00436516	92.0218
0.00439036	92.1758
0.0044157	92.3294
0.0044412	92.4826
0.00446684	92.6353
0.00449262	92.7876
0.00451856	92.9394
0.00454465	93.0854
0.00457088	93.2176
0.00459727	93.3491
0.00462381	93.4799
0.0046505	93.61
0.00467735	93.7394
0.00470435	93.868
0.00473151	93.9959
0.00475883	94.123
0.0047863	94.2494
0.00481393	94.375
0.00484172	94.4998
0.00486968	94.6238
0.00489779	94.747
0.00492606	94.8694
0.0049545	94.9909
0.0049831	95.1117
0.00501187	95.2315
0.00504081	95.3506
0.00506991	95.4687
0.00509918	95.586
0.00512861	95.7024
0.00515822	95.818
0.005188	95.9326
0.00521795	96.0463
0.00524807	96.159
0.00527837	96.2709
0.00530884	96.3818
0.00533949	96.4917
0.00537032	96.6007
0.00540132	96.7087
0.0054325	96.8157
0.00546387	96.9217
0.00549541	97.0267
0.00552713	97.1307
0.00555904	97.2336
0.00559114	97.3355
0.00562341	97.4364
0.00565588	97.5362
0.00568853	97.6349
0.00572137	97.7326
0.0057544	97.8292
0.00578762	97.9246
0.00582103	98.019
0.00585464	98.1122
0.00588844	98.2043
0.00592243	98.2953
0.00595662	98.3851
0.00599101	98.4737
0.0060256	98.5612
0.00606038	98.6475
0.00609537	98.7326
0.00613056	98.8165
0.00616595	98.8992
0.00620155	98.9806
0.00623735	99.0608
0.00627336	99.1398
0.00630957	99.2175
0.006346	99.294
0.00638263	99.3692
0.00641948	99.443
0.00645654	99.5156
0.00649382	99.5869
0.00653131	99.6569
0.00656901	99.7255
0.00660693	99.7928
0.00664508	99.8588
0.00668344	99.9234
0.00672202	99.9866
0.00676083	100.048
0.00679986	100.109
0.00683912	100.168
0.0068786	100.226
0.00691831	100.282
0.00695825	100.337
0.00699842	100.39
0.00703882	100.442
0.00707946	100.493
0.00712033	100.542
0.00716143	100.589
0.00720278	100.635
0.00724436	100.68
0.00728618	100.723
0.00732825	100.765
0.00737055	100.805
0.0074131	100.843
0.0074559	100.88
0.00749894	100.916
0.00754223	100.95
0.00758578	100.982
0.00762957	101.013
0.00767361	101.042
0.00771792	101.07
0.00776247	101.096
0.00780728	101.12
0.00785236	101.143
0.00789769	101.165
0.00794328	101.184
0.00798914	101.202
0.00803526	101.218
0.00808165	101.233
0.00812831	101.246
0.00817523	101.258
0.00822243	101.267
0.0082699	101.275
0.00831764	101.282
0.00836566	101.286
0.00841395	101.289
0.00846253	101.291
0.00851138	101.29
0.00856052	101.288
0.00860994	101.284
0.00865964	101.279
0.00870964	101.271
0.00875992	101.262
0.00881049	101.251
0.00886135	101.239
0.00891251	101.224
0.00896396	101.208
0.00901571	101.191
0.00906776	101.171
0.00912011	101.15
0.00917276	101.126
0.00922571	101.102
0.00927897	101.075
0.00933254	101.046
0.00938642	101.016
0.00944061	100.984
0.00949511	100.95
0.00954993	100.914
0.00960506	100.877
0.00966051	100.838
0.00971628	100.797
0.00977237	100.754
0.00982879	100.709
0.00988553	100.662
0.0099426	100.614
0.01	100.564
0.0100577	100.512
0.0101158	100.458
0.0101742	100.402
0.0102329	100.345
0.010292	100.285
0.0103514	100.224
0.0104112	100.161
0.0104713	100.096
0.0105317	100.03
0.0105925	99.9611
0.0106537	99.8908
0.0107152	99.8186
0.0107771	99.7446
0.0108393	99.6688
0.0109018	99.5912
0.0109648	99.5117
0.0110281	99.4304
0.0110917	99.3473
0.0111558	99.2624
0.0112202	99.1756
0.011285	99.087
0.0113501	98.9966
0.0114156	98.9044
0.0114815	98.8104
0.0115478	98.7146
0.0116145	98.617
0.0116815	98.5175
0.011749	98.4163
0.0118168	98.3133
0.011885	98.2085
0.0119536	98.1019
0.0120226	97.9936
0.0120921	97.8835
0.0121619	97.7716
0.0122321	97.6579
0.0123027	97.5425
0.0123737	97.4253
0.0124451	97.3064
0.012517	97.1857
0.0125893	97.0633
0.0126619	96.9392
0.012735	96.8134
0.0128086	96.6858
0.0128825	96.5566
0.0129569	96.4256
0.0130317	96.293
0.0131069	96.1586
0.0131826	96.0226
0.0132587	95.885
0.0133352	95.7456
0.0134122	95.6047
0.0134896	95.462
0.0135675	95.3178
0.0136458	95.1719
0.0137246	95.0244
0.0138038	94.8753
0.0138835	94.7246
0.0139637	94.5723
0.0140443	94.4185
0.0141254	94.2631
0.0142069	94.1061
0.0142889	93.9476
0.0143714	93.7876
0.0144544	93.626
0.0145378	93.4629
0.0146218	93.2984
0.0147062	93.1323
0.0147911	92.9648
0.0148765	92.7958
0.0149624	92.6254
0.0150487	92.4535
0.0151356	92.2802
0.015223	92.1055
0.0153109	91.9294
0.0153993	91.7519
0.0154882	91.5731
0.0155776	91.3929
0.0156675	91.2113
0.015758	91.0284
0.0158489	90.8442
0.0159404	90.6587
0.0160325	90.4718
0.016125	90.2838
0.0162181	90.0944
0.0163117	89.9038
0.0164059	89.712
0.0165006	89.519
0.0165959	89.3247
0.0166917	89.1293
0.016788	88.9327
0.016885	88.7349
0.0169824	88.536
0.0170805	88.336
0.0171791	88.1349
0.0172783	87.9327
0.017378	87.7294
0.0174783	87.525
0.0175792	87.3196
0.0176807	87.1131
0.0177828	86.9057
0.0178855	86.6972
0.0179887	86.4878
0.0180926	86.2774
0.018197	86.066
0.0183021	85.8537
0.0184077	85.6405
0.018514	85.4264
0.0186209	85.2115
0.0187284	84.9956
0.0188365	84.7789
0.0189452	84.5614
0.0190546	84.343
0.0191646	84.1239
0.0192752	83.904
0.0193865	83.6833
0.0194984	83.4619
0.019611	83.2397
0.0197242	83.0168
0.0198381	82.7932
0.0199526	82.569
0.0200678	82.3441
0.0201837	82.1185
0.0203002	81.8923
0.0204174	81.6655
0.0205353	81.4381
0.0206538	81.2102
0.020773	80.9816
0.020893	80.7526
0.0210136	80.523
0.0211349	80.2929
0.0212569	80.0623
0.0213796	79.8312
0.021503	79.5997
0.0216272	79.3677
0.021752	79.1353
0.0218776	78.9025
0.0220039	78.6693
0.0221309	78.4357
0.0222587	78.2018
0.0223872	77.9675
0.0225165	77.7329
0.0226464	77.498
0.0227772	77.2628
0.0229087	77.0273
0.0230409	76.7916
0.0231739	76.5556
0.0233077	76.3194
0.0234423	76.0829
0.0235776	75.8463
0.0237137	75.6095
0.0238506	75.3725
0.0239883	75.1354
0.0241268	74.8981
0.0242661	74.6607
0.0244062	74.4232
0.0245471	74.1857
0.0246888	73.948
0.0248313	73.7103
0.0249747	73.4725
0.0251189	73.2347
0.0252639	72.9969
0.0254097	72.7591
0.0255564	72.5213
0.025704	72.2835
0.0258523	72.0458
0.0260016	71.8081
0.0261517	71.5704
0.0263027	71.3329
0.0264545	71.0954
0.0266073	70.8581
0.0267609	70.6209
0.0269153	70.3838
0.0270707	70.1468
0.027227	69.91
0.0273842	69.6734
0.0275423	69.437
0.0277013	69.2007
0.0278612	68.9647
0.0280221	68.7288
0.0281838	68.4932
0.0283465	68.2579
0.0285102	68.0228
0.0286748	67.7879
0.0288403	67.5534
0.0290068	67.3191
0.0291743	67.0851
0.0293427	66.8514
0.0295121	66.618
0.0296825	66.385
0.0298538	66.1523
0.0300262	65.9199
0.0301995	65.688
0.0303739	65.4563
0.0305492	65.2251
0.0307256	64.9942
0.030903	64.7637
0.0310814	64.5336
0.0312608	64.304
0.0314413	64.0747
0.0316228	63.8459
0.0318053	63.6175
0.031989	63.3896
0.0321736	63.1621
0.0323594	62.9351
0.0325462	62.7086
0.0327341	62.4825
0.032923	62.2569
0.0331131	62.0318
0.0333043	61.8072
0.0334965	61.5831
0.0336899	61.3595
0.0338844	61.1364
0.03408	60.9138
0.0342768	60.6918
0.0344747	60.4703
0.0346737	60.2494
0.0348739	60.0289
0.0350752	59.8091
0.0352777	59.5898
0.0354813	59.3711
0.0356862	59.1529
0.0358922	58.9353
0.0360994	58.7183
0.0363078	58.5018
0.0365174	58.286
0.0367282	58.0707
0.0369403	57.8561
0.0371535	57.642
0.037368	57.4285
0.0375837	57.2157
0.0378007	57.0034
0.0380189	56.7918
0.0382384	56.5808
0.0384592	56.3704
0.0386812	56.1606
0.0389045	55.9514
0.0391291	55.7429
0.039355	55.535
0.0395822	55.3278
0.0398107	55.1212
0.0400405	54.9152
0.0402717	54.7099
0.0405042	54.5052
0.040738	54.3011
0.0409732	54.0977
0.0412098	53.895
0.0414477	53.6929
0.0416869	53.4914
0.0419276	53.2906
0.0421697	53.0905
0.0424131	52.891
0.042658	52.6922
0.0429042	52.494
0.0431519	52.2965
0.043401	52.0996
0.0436516	51.9034
0.0439036	51.7079
0.044157	51.513
0.044412	51.3188
0.0446684	51.1253
0.0449262	50.9324
0.0451856	50.7402
0.0454465	50.5487
0.0457088	50.3578
0.0459727	50.1675
0.0462381	49.978
0.046505	49.7891
0.0467735	49.6008
0.0470435	49.4132
0.0473151	49.2263
0.0475883	49.0401
0.047863	48.8545
0.0481393	48.6695
0.0484172	48.4853
0.0486968	48.3016
0.0489779	48.1187
0.0492606	47.9364
0.049545	47.7547
0.049831	47.5737
0.0501187	47.3934
0.0504081	47.2137
0.0506991	47.0346
0.0509918	46.8563
0.0512861	46.6785
0.0515822	46.5014
0.05188	46.325
0.0521795	46.1491
0.0524807	45.974
0.0527837	45.7995
0.0530884	45.6256
0.0533949	45.4523
0.0537032	45.2797
0.0540132	45.1077
0.054325	44.9364
0.0546387	44.7657
0.0549541	44.5956
0.0552713	44.4261
0.0555904	44.2573
0.0559114	44.0891
0.0562341	43.9215
0.0565588	43.7545
0.0568853	43.5881
0.0572137	43.4224
0.057544	43.2573
0.0578762	43.0928
0.0582103	42.9289
0.0585464	42.7656
0.0588844	42.6029
0.0592243	42.4408
0.0595662	42.2793
0.0599101	42.1184
0.060256	41.9581
0.0606038	41.7984
0.0609537	41.6393
0.0613056	41.4807
0.0616595	41.3228
0.0620155	41.1654
0.0623735	41.0087
0.0627336	40.8525
0.0630957	40.6969
0.06346	40.5418
0.0638263	40.3874
0.0641948	40.2335
0.0645654	40.0801
0.0649382	39.9274
0.0653131	39.7752
0.0656901	39.6235
0.0660693	39.4725
0.0664508	39.322
0.0668344	39.172
0.0672202	39.0226
0.0676083	38.8737
0.0679986	38.7254
0.0683912	38.5776
0.068786	38.4304
0.0691831	38.2837
0.0695825	38.1375
0.0699842	37.9919
0.0703882	37.8468
0.0707946	37.7023
0.0712033	37.5583
0.0716143	37.4148
0.0720278	37.2718
0.0724436	37.1293
0.0728618	36.9874
0.0732825	36.846
0.0737055	36.7051
0.074131	36.5647
0.074559	36.4248
0.0749894	36.2854
0.0754223	36.1466
0.0758578	36.0082
0.0762957	35.8703
0.0767361	35.733
0.0771792	35.5961
0.0776247	35.4597
0.0780728	35.3238
0.0785236	35.1884
0.0789769	35.0535
0.0794328	34.9191
0.0798914	34.7851
0.0803526	34.6517
0.0808165	34.5187
0.0812831	34.3862
0.0817523	34.2542
0.0822243	34.1226
0.082699	33.9915
0.0831764	33.8609
0.0836566	33.7307
0.0841395	33.601
0.0846253	33.4718
0.0851138	33.343
0.0856052	33.2147
0.0860994	33.0869
0.0865964	32.9594
0.0870964	32.8325
0.0875992	32.706
0.0881049	32.5799
0.0886135	32.4543
0.0891251	32.3291
0.0896396	32.2044
0.0901571	32.0801
0.0906776	31.9563
0.0912011	31.8329
0.0917276	31.7099
0.0922571	31.5873
0.0927897	31.4652
0.0933254	31.3435
0.0938642	31.2223
0.0944061	31.1014
0.0949511	30.981
0.0954993	30.861
0.0960506	30.7415
0.0966051	30.6223
0.0971628	30.5036
0.0977237	30.3852
0.0982879	30.2673
0.0988553	30.1498
0.099426	30.0327
0.1	29.916
0.100577	29.7998
0.101158	29.6839
0.101742	29.5684
0.102329	29.4533
0.10292	29.3387
0.103514	29.2244
0.104112	29.1105
0.104713	28.997
0.105317	28.8839
0.105925	28.7712
0.106537	28.6589
0.107152	28.547
0.107771	28.4355
0.108393	28.3243
0.109018	28.2135
0.109648	28.1032
0.110281	27.9932
0.110917	27.8835
0.111558	27.7743
0.112202	27.6654
0.11285	27.5569
0.113501	27.4488
0.114156	27.3411
0.114815	27.2337
0.115478	27.1267
0.116145	27.02
0.116815	26.9138
0.11749	26.8078
0.118168	26.7023
0.11885	26.5971
0.119536	26.4923
0.120226	26.3878
0.120921	26.2838
0.121619	26.18
0.122321	26.0766
0.123027	25.9736
0.123737	25.8709
0.124451	25.7686
0.12517	25.6666
0.125893	25.565
0.126619	25.4637
0.12735	25.3628
0.128086	25.2622
0.128825	25.162
0.129569	25.0621
0.130317	24.9626
0.131069	24.8634
0.131826	24.7645
0.132587	24.666
0.133352	24.5678
0.134122	24.47
0.134896	24.3725
0.135675	24.2753
0.136458	24.1784
0.137246	24.0819
0.138038	23.9858
0.138835	23.8899
0.139637	23.7944
0.140443	23.6992
0.141254	23.6044
0.142069	23.5098
0.142889	23.4156
0.143714	23.3218
0.144544	23.2282
0.145378	23.135
0.146218	23.0421
0.147062	22.9495
0.147911	22.8572
0.148765	22.7653
0.149624	22.6736
0.150487	22.5823
0.151356	22.4913
0.15223	22.4006
0.153109	22.3103
0.153993	22.2202
0.154882	22.1305
0.155776	22.041
0.156675	21.9519
0.15758	21.8631
0.158489	21.7746
0.159404	21.6864
0.160325	21.5985
0.16125	21.5109
0.162181	21.4236
0.163117	21.3366
0.164059	21.25
0.165006	21.1636
0.165959	21.0775
0.166917	20.9917
0.16788	20.9063
0.16885	20.8211
0.169824	20.7362
0.170805	20.6516
0.171791	20.5673
0.172783	20.4834
0.17378	20.3997
0.174783	20.3163
0.175792	20.2331
0.176807	20.1503
0.177828	20.0678
0.178855	19.9856
0.179887	19.9036
0.180926	19.822
0.18197	19.7406
0.183021	19.6595
0.184077	19.5787
0.18514	19.4982
0.186209	19.418
0.187284	19.338
0.188365	19.2584
0.189452	19.179
0.190546	19.0999
0.191646	19.0211
0.192752	18.9425
0.193865	18.8643
0.194984	18.7863
0.19611	18.7086
0.197242	18.6312
0.198381	18.554
0.199526	18.4772
0.200678	18.3984
0.201837	18.3201
0.203002	18.2405
0.204174	18.1611
0.205353	18.0821
0.206538	18.0034
0.20773	17.925
0.20893	17.845
0.210136	17.7673
0.211349	17.6898
0.212569	17.6126
0.213796	17.5357
0.21503	17.4592
0.216272	17.3831
0.21752	17.3072
0.218776	17.2316
0.220039	17.1562
0.221309	17.0812
0.222587	17.0065
0.223872	16.9321
0.225165	16.8579
0.226464	16.7841
0.227772	16.7106
0.229087	16.6373
0.230409	16.5644
0.231739	16.4918
0.233077	16.4195
0.234423	16.3484
0.235776	16.2766
0.237137	16.2052
0.238506	16.134
0.239883	16.0631
0.241268	15.9926
0.242661	15.9223
0.244062	15.8522
0.245471	15.7825
0.246888	15.7131
0.248313	15.6439
0.249747	15.575
0.251189	15.5085
0.252639	15.4402
0.254097	15.3727
0.255564	15.3049
0.25704	15.2375
0.258523	15.1702
0.260016	15.1033
0.261517	15.0366
0.263027	14.9702
0.264545	14.9041
0.266073	14.8383
0.267609	14.7727
0.269153	14.7074
0.270707	14.6424
0.27227	14.5776
0.273842	14.5131
0.275423	14.4574
0.277013	14.3933
0.278612	14.3295
0.280221	14.266
0.281838	14.2027
0.283465	14.1112
0.285102	14.0506
0.286748	13.9877
0.288403	13.925
0.290068	13.8626
0.291743	13.8005
0.293427	13.7387
0.295121	13.6772
0.296825	13.6159
0.298538	13.5549
0.300262	13.4942
0.301995	13.4336
0.303739	13.3734
0.305492	13.3134
0.307256	13.2536
0.30903	13.1941
0.310814	13.1348
0.312608	13.0758
0.314413	13.0171
0.316228	12.9585
0.318053	12.9003
0.31989	12.8422
0.321736	12.7844
0.323594	12.7269
0.325462	12.6696
0.327341	12.6125
0.32923	12.5557
0.331131	12.4991
0.333043	12.4427
0.334965	12.3866
0.336899	12.3385
0.338844	12.2828
0.3408	12.2274
0.342768	12.1722
0.344747	12.1172
0.346737	12.0624
0.348739	12.0079
0.350752	11.9536
0.352777	11.8995
0.354813	11.8457
0.356862	11.7921
0.358922	11.7387
0.360994	11.6855
0.363078	11.6326
0.365174	11.5799
0.367282	11.5274
0.369403	11.4751
0.371535	11.4231
0.37368	11.3713
0.375837	11.3197
0.378007	11.2683
0.380189	11.2171
0.382384	11.1667
0.384592	11.1159
0.386812	11.0654
0.389045	11.0151
0.391291	10.965
0.39355	10.9152
0.395822	10.8656
0.398107	10.8173
0.400405	10.7691
0.402717	10.7212
0.405042	10.6735
0.40738	10.6259
0.409732	10.5786
0.412098	10.5314
0.414477	10.4844
0.416869	10.4376
0.419276	10.391
0.421697	10.3446
0.424131	10.2984
0.42658	10.2524
0.429042	10.2065
0.431519	10.1609
0.43401	10.1154
0.436516	10.0701
0.439036	10.025
0.44157	9.98008
0.44412	9.93534
0.446684	9.89079
0.449262	9.84642
0.451856	9.80224
0.454465	9.75824
0.457088	9.71442
0.459727	9.67077
0.462381	9.62997
0.46505	9.58664
0.467735	9.5435
0.470435	9.50053
0.473151	9.45773
0.475883	9.41512
0.47863	9.37269
0.481393	9.33043
0.484172	9.28834
0.486968	9.24644
0.489779	9.2047
0.492606	9.16314
0.49545	9.12176
0.49831	9.08055
0.501187	9.03952
0.504081	9.0048
0.506991	8.96403
0.509918	8.92344
0.512861	8.88302
0.515822	8.84277
0.5188	8.80269
0.521795	8.76278
0.524807	8.72304
0.527837	8.68347
0.530884	8.64407
0.533949	8.60483
0.537032	8.56576
0.540132	8.52686
0.54325	8.48812
0.546387	8.44955
0.549541	8.41114
0.552713	8.3729
0.555904	8.33482
0.559114	8.29691
0.562341	8.25916
0.565588	8.22156
0.568853	8.18414
0.572137	8.14686
0.57544	8.10975
0.578762	8.0728
0.582103	8.03601
0.585464	7.99937
0.588844	7.9629
0.592243	7.92658
0.595662	7.89041
0.599101	7.85441
0.60256	7.81856
0.606038	7.78287
0.609537	7.74733
