Stopping power dEdx from Ionisation for mu- Z = 0 in G4_TISSUE_SOFT_ICRP, process name: muIoni
E [MeV]	dEdx [MeV/mm]
0.001	18.365
0.00100577	18.5599
0.00101158	18.7531
0.00101742	18.9445
0.00102329	19.1343
0.0010292	19.3224
0.00103514	19.5089
0.00104112	19.6939
0.00104713	19.8772
0.00105317	20.0589
0.00105925	20.2391
0.00106537	20.4179
0.00107152	20.5951
0.00107771	20.7711
0.00108393	20.9459
0.00109018	21.1187
0.00109648	21.2694
0.00110281	21.4165
0.00110917	21.5651
0.00111558	21.7128
0.00112202	21.8595
0.0011285	22.0052
0.00113501	22.1498
0.00114156	22.2935
0.00114815	22.4291
0.00115478	22.5611
0.00116145	22.6924
0.00116815	22.823
0.0011749	22.9529
0.00118168	23.0822
0.0011885	23.2107
0.00119536	23.3457
0.00120226	23.484
0.00120921	23.6218
0.00121619	23.7715
0.00122321	23.9272
0.00123027	24.0824
0.00123737	24.2365
0.00124451	24.3898
0.0012517	24.5421
0.00125893	24.6935
0.00126619	24.8444
0.0012735	24.9944
0.00128086	25.1437
0.00128825	25.2921
0.00129569	25.4397
0.00130317	25.5865
0.00131069	25.7538
0.00131826	25.9397
0.00132587	26.1241
0.00133352	26.3071
0.00134122	26.4888
0.00134896	26.6689
0.00135675	26.8477
0.00136458	27.0251
0.00137246	27.2012
0.00138038	27.3761
0.00138835	27.5497
0.00139637	27.728
0.00140443	27.906
0.00141254	28.0828
0.00142069	28.2591
0.00142889	28.4356
0.00143714	28.6108
0.00144544	28.7848
0.00145378	28.9579
0.00146218	29.1338
0.00147062	29.3066
0.00147911	29.4356
0.00148765	29.564
0.00149624	29.6918
0.00150487	29.8191
0.00151356	29.946
0.0015223	30.0723
0.00153109	30.1981
0.00153993	30.3235
0.00154882	30.4484
0.00155776	30.5728
0.00156675	30.6968
0.0015758	30.8203
0.00158489	30.9421
0.00159404	31.0661
0.00160325	31.1911
0.0016125	31.3157
0.00162181	31.4399
0.00163117	31.5638
0.00164059	31.7126
0.00165006	31.8689
0.00165959	32.0243
0.00166917	32.1789
0.0016788	32.3327
0.0016885	32.4877
0.00169824	32.6426
0.00170805	32.7987
0.00171791	32.9542
0.00172783	33.1089
0.0017378	33.2628
0.00174783	33.416
0.00175792	33.5684
0.00176807	33.7201
0.00177828	33.8711
0.00178855	34.0217
0.00179887	34.1729
0.00180926	34.3234
0.0018197	34.4732
0.00183021	34.6224
0.00184077	34.7709
0.0018514	34.9188
0.00186209	35.066
0.00187284	35.2126
0.00188365	35.3586
0.00189452	35.505
0.00190546	35.6525
0.00191646	35.7994
0.00192752	35.9456
0.00193865	36.0914
0.00194984	36.238
0.0019611	36.385
0.00197242	36.5412
0.00198381	36.6968
0.00199526	36.826
0.00200678	36.9518
0.00201837	37.0773
0.00203002	37.2025
0.00204174	37.3274
0.00205353	37.4521
0.00206538	37.5766
0.0020773	37.7009
0.0020893	37.8249
0.00210136	37.9488
0.00211349	38.0724
0.00212569	38.1958
0.00213796	38.3191
0.0021503	38.4421
0.00216272	38.5649
0.0021752	38.6876
0.00218776	38.8105
0.00220039	38.9335
0.00221309	39.0563
0.00222587	39.1786
0.00223872	39.3008
0.00225165	39.4228
0.00226464	39.5447
0.00227772	39.6664
0.00229087	39.7899
0.00230409	39.918
0.00231739	40.0459
0.00233077	40.1737
0.00234423	40.3013
0.00235776	40.4302
0.00237137	40.5597
0.00238506	40.689
0.00239883	40.8181
0.00241268	40.9471
0.00242661	41.073
0.00244062	41.1914
0.00245471	41.309
0.00246888	41.4266
0.00248313	41.5436
0.00249747	41.6563
0.00251189	41.7691
0.00252639	41.8831
0.00254097	41.9988
0.00255564	42.1144
0.0025704	42.2301
0.00258523	42.3457
0.00260016	42.4613
0.00261517	42.5772
0.00263027	42.6965
0.00264545	42.8157
0.00266073	42.9349
0.00267609	43.054
0.00269153	43.1732
0.00270707	43.2926
0.0027227	43.412
0.00273842	43.5314
0.00275423	43.6507
0.00277013	43.77
0.00278612	43.8892
0.00280221	44.0084
0.00281838	44.1275
0.00283465	44.2466
0.00285102	44.3622
0.00286748	44.4776
0.00288403	44.593
0.00290068	44.7084
0.00291743	44.8238
0.00293427	44.9393
0.00295121	45.0559
0.00296825	45.1732
0.00298538	45.2978
0.00300262	45.4311
0.00301995	45.5641
0.00303739	45.6977
0.00305492	45.8301
0.00307256	45.9622
0.0030903	46.094
0.00310814	46.2257
0.00312608	46.3572
0.00314413	46.4886
0.00316228	46.6213
0.00318053	46.7547
0.0031989	46.8878
0.00321736	47.0207
0.00323594	47.1533
0.00325462	47.2858
0.00327341	47.4107
0.0032923	47.5212
0.00331131	47.6318
0.00333043	47.7425
0.00334965	47.8531
0.00336899	47.9638
0.00338844	48.0744
0.003408	48.1851
0.00342768	48.2958
0.00344747	48.4066
0.00346737	48.5174
0.00348739	48.6221
0.00350752	48.7239
0.00352777	48.8259
0.00354813	48.9279
0.00356862	49.0301
0.00358922	49.1322
0.00360994	49.2344
0.00363078	49.3366
0.00365174	49.4433
0.00367282	49.5515
0.00369403	49.6596
0.00371535	49.7678
0.0037368	49.8759
0.00375837	49.984
0.00378007	50.0921
0.00380189	50.2015
0.00382384	50.3109
0.00384592	50.4203
0.00386812	50.5297
0.00389045	50.639
0.00391291	50.7483
0.0039355	50.8575
0.00395822	50.9667
0.00398107	51.0628
0.00400405	51.1446
0.00402717	51.227
0.00405042	51.3115
0.0040738	51.3965
0.00409732	51.4793
0.00412098	51.5604
0.00414477	51.6421
0.00416869	51.7241
0.00419276	51.8067
0.00421697	51.8897
0.00424131	51.9727
0.0042658	52.053
0.00429042	52.1334
0.00431519	52.2141
0.0043401	52.2952
0.00436516	52.3767
0.00439036	52.4586
0.0044157	52.5411
0.0044412	52.6245
0.00446684	52.7081
0.00449262	52.7825
0.00451856	52.8573
0.00454465	52.9326
0.00457088	53.0082
0.00459727	53.0843
0.00462381	53.1607
0.0046505	53.2375
0.00467735	53.3147
0.00470435	53.3921
0.00473151	53.4702
0.00475883	53.5487
0.0047863	53.6275
0.00481393	53.7067
0.00484172	53.7862
0.00486968	53.8586
0.00489779	53.9293
0.00492606	54.0099
0.0049545	54.092
0.0049831	54.1729
0.00501187	54.2534
0.00504081	54.3343
0.00506991	54.4159
0.00509918	54.4977
0.00512861	54.5798
0.00515822	54.6621
0.005188	54.7445
0.00521795	54.8272
0.00524807	54.9102
0.00527837	54.9933
0.00530884	55.0766
0.00533949	55.16
0.00537032	55.2437
0.00540132	55.3288
0.0054325	55.4141
0.00546387	55.4979
0.00549541	55.5796
0.00552713	55.6611
0.00555904	55.7428
0.00559114	55.8246
0.00562341	55.9066
0.00565588	55.9887
0.00568853	56.0711
0.00572137	56.1527
0.0057544	56.2267
0.00578762	56.3008
0.00582103	56.3752
0.00585464	56.4497
0.00588844	56.5243
0.00592243	56.5991
0.00595662	56.6733
0.00599101	56.7264
0.0060256	56.7798
0.00606038	56.8324
0.00609537	56.8836
0.00613056	56.9349
0.00616595	56.9866
0.00620155	57.0386
0.00623735	57.091
0.00627336	57.1437
0.00630957	57.1966
0.006346	57.2484
0.00638263	57.3006
0.00641948	57.353
0.00645654	57.4058
0.00649382	57.4589
0.00653131	57.5123
0.00656901	57.5512
0.00660693	57.5892
0.00664508	57.6278
0.00668344	57.6669
0.00672202	57.7068
0.00676083	57.7483
0.00679986	57.7903
0.00683912	57.8327
0.0068786	57.8757
0.00691831	57.9191
0.00695825	57.9655
0.00699842	58.0193
0.00703882	58.0734
0.00707946	58.1278
0.00712033	58.1824
0.00716143	58.2372
0.00720278	58.2922
0.00724436	58.3474
0.00728618	58.3993
0.00732825	58.4467
0.00737055	58.4895
0.0074131	58.5276
0.0074559	58.5659
0.00749894	58.6047
0.00754223	58.6437
0.00758578	58.6832
0.00762957	58.723
0.00767361	58.7632
0.00771792	58.8036
0.00776247	58.8443
0.00780728	58.8853
0.00785236	58.9266
0.00789769	58.9679
0.00794328	59.0081
0.00798914	59.0319
0.00803526	59.0562
0.00808165	59.0815
0.00812831	59.1078
0.00817523	59.1338
0.00822243	59.1563
0.0082699	59.1791
0.00831764	59.2023
0.00836566	59.2259
0.00841395	59.2499
0.00846253	59.2742
0.00851138	59.3006
0.00856052	59.3285
0.00860994	59.3567
0.00865964	59.3852
0.00870964	59.4139
0.00875992	59.4429
0.00881049	59.4722
0.00886135	59.502
0.00891251	59.5321
0.00896396	59.5633
0.00901571	59.5953
0.00906776	59.6274
0.00912011	59.6596
0.00917276	59.692
0.00922571	59.7245
0.00927897	59.7571
0.00933254	59.7898
0.00938642	59.8226
0.00944061	59.856
0.00949511	59.8903
0.00954993	59.9248
0.00960506	59.9593
0.00966051	59.9939
0.00971628	60.0258
0.00977237	60.054
0.00982879	60.0732
0.00988553	60.0828
0.0099426	60.0894
0.01	60.0881
0.0100577	60.0872
0.0101158	60.0869
0.0101742	60.0869
0.0102329	60.0874
0.010292	60.0881
0.0103514	60.0893
0.0104112	60.0907
0.0104713	60.0924
0.0105317	60.0945
0.0105925	60.0969
0.0106537	60.0996
0.0107152	60.1027
0.0107771	60.1063
0.0108393	60.1103
0.0109018	60.1146
0.0109648	60.1192
0.0110281	60.1242
0.0110917	60.1283
0.0111558	60.1326
0.0112202	60.1371
0.011285	60.1419
0.0113501	60.1471
0.0114156	60.1527
0.0114815	60.1612
0.0115478	60.1709
0.0116145	60.1807
0.0116815	60.1907
0.011749	60.2007
0.0118168	60.2108
0.011885	60.221
0.0119536	60.2206
0.0120226	60.2134
0.0120921	60.2064
0.0121619	60.197
0.0122321	60.1861
0.0123027	60.1752
0.0123737	60.1646
0.0124451	60.1542
0.012517	60.1441
0.0125893	60.1344
0.0126619	60.124
0.012735	60.1135
0.0128086	60.1032
0.0128825	60.0931
0.0129569	60.0833
0.0130317	60.0735
0.0131069	60.0569
0.0131826	60.0332
0.0132587	60.0098
0.0133352	59.9867
0.0134122	59.9638
0.0134896	59.9404
0.0135675	59.9172
0.0136458	59.8942
0.0137246	59.8715
0.0138038	59.8492
0.0138835	59.8271
0.0139637	59.7939
0.0140443	59.7585
0.0141254	59.7236
0.0142069	59.6886
0.0142889	59.6532
0.0143714	59.6181
0.0144544	59.5833
0.0145378	59.5488
0.0146218	59.508
0.0147062	59.4668
0.0147911	59.4244
0.0148765	59.3824
0.0149624	59.3479
0.0150487	59.3153
0.0151356	59.2831
0.015223	59.2511
0.0153109	59.2194
0.0153993	59.1879
0.0154882	59.1566
0.0155776	59.1255
0.0156675	59.0945
0.015758	59.0638
0.0158489	59.0323
0.0159404	58.9942
0.0160325	58.9522
0.016125	58.9104
0.0162181	58.8688
0.0163117	58.8275
0.0164059	58.7793
0.0165006	58.7286
0.0165959	58.6781
0.0166917	58.628
0.016788	58.5782
0.016885	58.5281
0.0169824	58.4772
0.0170805	58.4224
0.0171791	58.3674
0.0172783	58.3128
0.017378	58.2585
0.0174783	58.2045
0.0175792	58.151
0.0176807	58.098
0.0177828	58.0454
0.0178855	57.9916
0.0179887	57.9307
0.0180926	57.8702
0.018197	57.8108
0.0183021	57.754
0.0184077	57.6978
0.018514	57.6418
0.0186209	57.5862
0.0187284	57.5309
0.0188365	57.4759
0.0189452	57.4204
0.0190546	57.3639
0.0191646	57.3076
0.0192752	57.2516
0.0193865	57.1958
0.0194984	57.1362
0.019611	57.0759
0.0197242	56.9994
0.0198381	56.9233
0.0199526	56.848
0.0200678	56.7732
0.0201837	56.6988
0.0203002	56.6249
0.0204174	56.5512
0.0205353	56.4777
0.0206538	56.4045
0.020773	56.3316
0.020893	56.2589
0.0210136	56.1864
0.0211349	56.1142
0.0212569	56.0423
0.0213796	55.9706
0.021503	55.8991
0.0216272	55.828
0.021752	55.757
0.0218776	55.6845
0.0220039	55.6105
0.0221309	55.5365
0.0222587	55.4627
0.0223872	55.3891
0.0225165	55.3159
0.0226464	55.243
0.0227772	55.1703
0.0229087	55.0945
0.0230409	55.009
0.0231739	54.9238
0.0233077	54.8389
0.0234423	54.7543
0.0235776	54.6696
0.0237137	54.5848
0.0238506	54.5003
0.0239883	54.4162
0.0241268	54.3324
0.0242661	54.2488
0.0244062	54.1649
0.0245471	54.0831
0.0246888	54.0064
0.0248313	53.929
0.0249747	53.8415
0.0251189	53.7544
0.0252639	53.6671
0.0254097	53.5791
0.0255564	53.4914
0.025704	53.4039
0.0258523	53.3168
0.0260016	53.23
0.0261517	53.1429
0.0263027	53.046
0.0264545	52.9494
0.0266073	52.8532
0.0267609	52.7573
0.0269153	52.6615
0.0270707	52.5657
0.027227	52.4701
0.0273842	52.3749
0.0275423	52.2801
0.0277013	52.1856
0.0278612	52.0915
0.0280221	51.9977
0.0281838	51.9042
0.0283465	51.8111
0.0285102	51.7179
0.0286748	51.625
0.0288403	51.5324
0.0290068	51.4401
0.0291743	51.3482
0.0293427	51.2566
0.0295121	51.1605
0.0296825	51.0611
0.0298538	50.9592
0.0300262	50.8533
0.0301995	50.748
0.0303739	50.6404
0.0305492	50.5306
0.0307256	50.421
0.030903	50.3119
0.0310814	50.2032
0.0312608	50.095
0.0314413	49.9872
0.0316228	49.879
0.0318053	49.7708
0.031989	49.6631
0.0321736	49.5558
0.0323594	49.449
0.0325462	49.3426
0.0327341	49.2356
0.032923	49.126
0.0331131	49.0169
0.0333043	48.9081
0.0334965	48.7997
0.0336899	48.6911
0.0338844	48.5826
0.03408	48.4744
0.0342768	48.3666
0.0344747	48.2593
0.0346737	48.1523
0.0348739	48.0426
0.0350752	47.9313
0.0352777	47.8206
0.0354813	47.7103
0.0356862	47.6005
0.0358922	47.4911
0.0360994	47.3821
0.0363078	47.2735
0.0365174	47.1632
0.0367282	47.0523
0.0369403	46.9418
0.0371535	46.8318
0.037368	46.7221
0.0375837	46.613
0.0378007	46.5042
0.0380189	46.394
0.0382384	46.284
0.0384592	46.1745
0.0386812	46.0654
0.0389045	45.9567
0.0391291	45.8485
0.039355	45.7407
0.0395822	45.6333
0.0398107	45.5249
0.0400405	45.4147
0.0402717	45.305
0.0405042	45.1943
0.040738	45.0839
0.0409732	44.9687
0.0412098	44.8484
0.0414477	44.7285
0.0416869	44.6092
0.0419276	44.4903
0.0421697	44.3719
0.0424131	44.2541
0.042658	44.1348
0.0429042	44.0158
0.0431519	43.8973
0.043401	43.7794
0.0436516	43.6619
0.0439036	43.545
0.044157	43.4285
0.044412	43.3109
0.0446684	43.1938
0.0449262	43.0746
0.0451856	42.9558
0.0454465	42.8374
0.0457088	42.7196
0.0459727	42.6024
0.0462381	42.4856
0.046505	42.3695
0.0467735	42.2538
0.0470435	42.1386
0.0473151	42.0234
0.0475883	41.9092
0.047863	41.7956
0.0481393	41.6824
0.0484172	41.5698
0.0486968	41.4566
0.0489779	41.3434
0.0492606	41.225
0.049545	41.1056
0.049831	40.9849
0.0501187	40.8635
0.0504081	40.7427
0.0506991	40.6212
0.0509918	40.5001
0.0512861	40.3796
0.0515822	40.2596
0.05188	40.1402
0.0521795	40.0214
0.0524807	39.903
0.0527837	39.7852
0.0530884	39.668
0.0533949	39.5513
0.0537032	39.4352
0.0540132	39.3185
0.054325	39.2022
0.0546387	39.0861
0.0549541	38.9697
0.0552713	38.8538
0.0555904	38.7385
0.0559114	38.6236
0.0562341	38.5094
0.0565588	38.3957
0.0568853	38.2821
0.0572137	38.1684
0.057544	38.0502
0.0578762	37.9326
0.0582103	37.8156
0.0585464	37.6991
0.0588844	37.5832
0.0592243	37.4678
0.0595662	37.353
0.0599101	37.236
0.060256	37.1193
0.0606038	37.003
0.0609537	36.8856
0.0613056	36.7686
0.0616595	36.6521
0.0620155	36.5363
0.0623735	36.421
0.0627336	36.3061
0.0630957	36.1917
0.06346	36.077
0.0638263	35.9628
0.0641948	35.8492
0.0645654	35.7361
0.0649382	35.6235
0.0653131	35.5115
0.0656901	35.3973
0.0660693	35.2827
0.0664508	35.1687
0.0668344	35.0552
0.0672202	34.9422
0.0676083	34.8288
0.0679986	34.7159
0.0683912	34.6035
0.068786	34.4917
0.0691831	34.3805
0.0695825	34.2696
0.0699842	34.1572
0.0703882	34.0455
0.0707946	33.9343
0.0712033	33.8237
0.0716143	33.7136
0.0720278	33.6041
0.0724436	33.4951
0.0728618	33.3863
0.0732825	33.2771
0.0737055	33.1675
0.074131	33.0565
0.074559	32.946
0.0749894	32.836
0.0754223	32.7267
0.0758578	32.6178
0.0762957	32.5094
0.0767361	32.4016
0.0771792	32.2944
0.0776247	32.1876
0.0780728	32.0815
0.0785236	31.9758
0.0789769	31.8703
0.0794328	31.7644
0.0798914	31.6575
0.0803526	31.551
0.0808165	31.4444
0.0812831	31.3372
0.0817523	31.2305
0.0822243	31.1214
0.082699	31.0127
0.0831764	30.9046
0.0836566	30.797
0.0841395	30.6899
0.0846253	30.5834
0.0851138	30.477
0.0856052	30.3707
0.0860994	30.2648
0.0865964	30.1595
0.0870964	30.0547
0.0875992	29.9505
0.0881049	29.8468
0.0886135	29.7434
0.0891251	29.6406
0.0896396	29.5379
0.0901571	29.4348
0.0906776	29.3323
0.0912011	29.2303
0.0917276	29.1289
0.0922571	29.0279
0.0927897	28.9275
0.0933254	28.8276
0.0938642	28.7282
0.0944061	28.6285
0.0949511	28.5282
0.0954993	28.428
0.0960506	28.3284
0.0966051	28.2292
0.0971628	28.1304
0.0977237	28.0316
0.0982879	27.9325
0.0988553	27.8317
0.099426	27.7313
0.1	27.63
0.100577	27.5292
0.101158	27.4291
0.101742	27.3296
0.102329	27.2306
0.10292	27.1321
0.103514	27.0341
0.104112	26.9367
0.104713	26.8397
0.105317	26.7431
0.105925	26.6471
0.106537	26.5516
0.107152	26.4566
0.107771	26.3617
0.108393	26.2666
0.109018	26.172
0.109648	26.0775
0.110281	25.9833
0.110917	25.8891
0.111558	25.7952
0.112202	25.7019
0.11285	25.609
0.113501	25.5166
0.114156	25.4245
0.114815	25.332
0.115478	25.2387
0.116145	25.1459
0.116815	25.0537
0.11749	24.9619
0.118168	24.8705
0.11885	24.7797
0.119536	24.6889
0.120226	24.5975
0.120921	24.5067
0.121619	24.4153
0.122321	24.324
0.123027	24.2331
0.123737	24.1427
0.124451	24.0527
0.12517	23.9632
0.125893	23.8741
0.126619	23.7851
0.12735	23.6963
0.128086	23.608
0.128825	23.5201
0.129569	23.4328
0.130317	23.3458
0.131069	23.259
0.131826	23.1713
0.132587	23.084
0.133352	22.9973
0.134122	22.911
0.134896	22.8246
0.135675	22.7382
0.136458	22.6523
0.137246	22.5669
0.138038	22.4819
0.138835	22.3973
0.139637	22.3127
0.140443	22.2279
0.141254	22.1437
0.142069	22.0599
0.142889	21.9761
0.143714	21.8929
0.144544	21.81
0.145378	21.7276
0.146218	21.6453
0.147062	21.5631
0.147911	21.4805
0.148765	21.398
0.149624	21.3159
0.150487	21.2342
0.151356	21.1528
0.15223	21.0717
0.153109	20.991
0.153993	20.9108
0.154882	20.8309
0.155776	20.7515
0.156675	20.6725
0.15758	20.5939
0.158489	20.5154
0.159404	20.437
0.160325	20.3585
0.16125	20.2804
0.162181	20.2026
0.163117	20.1253
0.164059	20.0479
0.165006	19.97
0.165959	19.8926
0.166917	19.8155
0.16788	19.7388
0.16885	19.6619
0.169824	19.5849
0.170805	19.508
0.171791	19.4314
0.172783	19.3552
0.17378	19.2795
0.174783	19.2041
0.175792	19.1291
0.176807	19.0543
0.177828	18.9798
0.178855	18.9058
0.179887	18.8316
0.180926	18.7577
0.18197	18.6842
0.183021	18.6111
0.184077	18.5384
0.18514	18.466
0.186209	18.3941
0.187284	18.3225
0.188365	18.2513
0.189452	18.1805
0.190546	18.1097
0.191646	18.0393
0.192752	17.9692
0.193865	17.8995
0.194984	17.83
0.19611	17.7608
0.197242	17.691
0.198381	17.6211
0.199526	17.5512
0.200678	17.4808
0.201837	17.4121
0.203002	17.3419
0.204174	17.2719
0.205353	17.2021
0.206538	17.1326
0.20773	17.0633
0.20893	16.9923
0.210136	16.9234
0.211349	16.8547
0.212569	16.7862
0.213796	16.7179
0.21503	16.6498
0.216272	16.5822
0.21752	16.5146
0.218776	16.4472
0.220039	16.38
0.221309	16.313
0.222587	16.2462
0.223872	16.1797
0.225165	16.1134
0.226464	16.0473
0.227772	15.9814
0.229087	15.9157
0.230409	15.8502
0.231739	15.785
0.233077	15.72
0.234423	15.6561
0.235776	15.5915
0.237137	15.5271
0.238506	15.463
0.239883	15.399
0.241268	15.3353
0.242661	15.2718
0.244062	15.2085
0.245471	15.1454
0.246888	15.0826
0.248313	15.0199
0.249747	14.9575
0.251189	14.8973
0.252639	14.8352
0.254097	14.774
0.255564	14.7125
0.25704	14.6511
0.258523	14.5899
0.260016	14.529
0.261517	14.4682
0.263027	14.4077
0.264545	14.3474
0.266073	14.2873
0.267609	14.2275
0.269153	14.1678
0.270707	14.1083
0.27227	14.0491
0.273842	13.99
0.275423	13.9395
0.277013	13.8808
0.278612	13.8223
0.280221	13.764
0.281838	13.7059
0.283465	13.6202
0.285102	13.5646
0.286748	13.5067
0.288403	13.449
0.290068	13.3916
0.291743	13.3344
0.293427	13.2774
0.295121	13.2207
0.296825	13.1641
0.298538	13.1078
0.300262	13.0516
0.301995	12.9957
0.303739	12.94
0.305492	12.8845
0.307256	12.8292
0.30903	12.774
0.310814	12.7191
0.312608	12.6645
0.314413	12.61
0.316228	12.5557
0.318053	12.5016
0.31989	12.4477
0.321736	12.394
0.323594	12.3405
0.325462	12.2872
0.327341	12.2342
0.32923	12.1813
0.331131	12.1286
0.333043	12.0761
0.334965	12.0238
0.336899	11.9794
0.338844	11.9274
0.3408	11.8757
0.342768	11.8242
0.344747	11.7728
0.346737	11.7217
0.348739	11.6707
0.350752	11.62
0.352777	11.5694
0.354813	11.519
0.356862	11.4688
0.358922	11.4189
0.360994	11.3691
0.363078	11.3195
0.365174	11.2701
0.367282	11.2208
0.369403	11.1718
0.371535	11.123
0.37368	11.0743
0.375837	11.0259
0.378007	10.9776
0.380189	10.9295
0.382384	10.8821
0.384592	10.8344
0.386812	10.7869
0.389045	10.7395
0.391291	10.6924
0.39355	10.6454
0.395822	10.5987
0.398107	10.5532
0.400405	10.5079
0.402717	10.4627
0.405042	10.4177
0.40738	10.3728
0.409732	10.3282
0.412098	10.2836
0.414477	10.2393
0.416869	10.1951
0.419276	10.1511
0.421697	10.1072
0.424131	10.0635
0.42658	10.02
0.429042	9.97662
0.431519	9.93341
0.43401	9.89036
0.436516	9.84747
0.439036	9.80474
0.44157	9.76218
0.44412	9.71977
0.446684	9.67752
0.449262	9.63543
0.451856	9.5935
0.454465	9.55173
0.457088	9.51011
0.459727	9.46866
0.462381	9.42997
0.46505	9.38879
0.467735	9.34777
0.470435	9.30689
0.473151	9.26618
0.475883	9.22561
0.47863	9.18522
0.481393	9.14497
0.484172	9.10487
0.486968	9.06493
0.489779	9.02515
0.492606	8.98551
0.49545	8.94603
0.49831	8.90671
0.501187	8.86755
0.504081	8.83459
0.506991	8.79565
0.509918	8.75686
0.512861	8.71823
0.515822	8.67975
0.5188	8.64142
0.521795	8.60324
0.524807	8.56521
0.527837	8.52733
0.530884	8.4896
0.533949	8.45202
0.537032	8.41459
0.540132	8.3773
0.54325	8.34017
0.546387	8.30318
0.549541	8.26634
0.552713	8.22965
0.555904	8.1931
0.559114	8.1567
0.562341	8.12045
0.565588	8.08434
0.568853	8.04838
0.572137	8.01256
0.57544	7.97688
0.578762	7.94135
0.582103	7.90596
0.585464	7.87071
0.588844	7.8356
0.592243	7.80064
0.595662	7.76581
0.599101	7.73114
0.60256	7.6966
0.606038	7.6622
0.609537	7.62794
0.613056	7.59382
