Stopping power dEdx from Ionisation for N14[0.0] Z = 7 in G4_TISSUE_SOFT_ICRP, process name: ionIoni
E [MeV]	dEdx [MeV/mm]
0.001	43.5121
0.00100577	43.6375
0.00101158	43.7633
0.00101742	43.8894
0.00102329	44.0159
0.0010292	44.1428
0.00103514	44.27
0.00104112	44.3976
0.00104713	44.5256
0.00105317	44.6539
0.00105925	44.7826
0.00106537	44.9117
0.00107152	45.0412
0.00107771	45.171
0.00108393	45.3012
0.00109018	45.4318
0.00109648	45.5627
0.00110281	45.6941
0.00110917	45.8258
0.00111558	45.9579
0.00112202	46.0903
0.0011285	46.2232
0.00113501	46.3564
0.00114156	46.49
0.00114815	46.624
0.00115478	46.7584
0.00116145	46.8932
0.00116815	47.0284
0.0011749	47.1639
0.00118168	47.2999
0.0011885	47.4362
0.00119536	47.5729
0.00120226	47.71
0.00120921	47.8476
0.00121619	47.9855
0.00122321	48.1238
0.00123027	48.2625
0.00123737	48.4016
0.00124451	48.5411
0.0012517	48.681
0.00125893	48.8213
0.00126619	48.9621
0.0012735	49.1032
0.00128086	49.2447
0.00128825	49.3867
0.00129569	49.529
0.00130317	49.6718
0.00131069	49.815
0.00131826	49.9585
0.00132587	50.1025
0.00133352	50.247
0.00134122	50.3918
0.00134896	50.537
0.00135675	50.6827
0.00136458	50.8288
0.00137246	50.9753
0.00138038	51.1222
0.00138835	51.2696
0.00139637	51.4174
0.00140443	51.5656
0.00141254	51.7142
0.00142069	51.8633
0.00142889	52.0127
0.00143714	52.1627
0.00144544	52.313
0.00145378	52.4638
0.00146218	52.615
0.00147062	52.7667
0.00147911	52.9188
0.00148765	53.0713
0.00149624	53.2243
0.00150487	53.3777
0.00151356	53.5315
0.0015223	53.6858
0.00153109	53.8406
0.00153993	53.9958
0.00154882	54.1514
0.00155776	54.3075
0.00156675	54.464
0.0015758	54.621
0.00158489	54.7785
0.00159404	54.9363
0.00160325	55.0947
0.0016125	55.2535
0.00162181	55.4128
0.00163117	55.5725
0.00164059	55.7327
0.00165006	55.8933
0.00165959	56.0544
0.00166917	56.216
0.0016788	56.378
0.0016885	56.5405
0.00169824	56.7035
0.00170805	56.8669
0.00171791	57.0308
0.00172783	57.1952
0.0017378	57.3601
0.00174783	57.5254
0.00175792	57.6912
0.00176807	57.8575
0.00177828	58.0243
0.00178855	58.1915
0.00179887	58.3593
0.00180926	58.5275
0.0018197	58.6962
0.00183021	58.8654
0.00184077	59.035
0.0018514	59.2052
0.00186209	59.3758
0.00187284	59.547
0.00188365	59.7186
0.00189452	59.8908
0.00190546	60.0634
0.00191646	60.2365
0.00192752	60.4101
0.00193865	60.5843
0.00194984	60.7589
0.0019611	60.934
0.00197242	61.1096
0.00198381	61.2858
0.00199526	61.4624
0.00200678	61.6396
0.00201837	61.8173
0.00203002	61.9954
0.00204174	62.1741
0.00205353	62.3533
0.00206538	62.5331
0.0020773	62.7133
0.0020893	62.8941
0.00210136	63.0754
0.00211349	63.2572
0.00212569	63.4395
0.00213796	63.6224
0.0021503	63.8057
0.00216272	63.9897
0.0021752	64.1741
0.00218776	64.3591
0.00220039	64.5446
0.00221309	64.7306
0.00222587	64.9172
0.00223872	65.1043
0.00225165	65.292
0.00226464	65.4802
0.00227772	65.6689
0.00229087	65.8582
0.00230409	66.048
0.00231739	66.2384
0.00233077	66.4293
0.00234423	66.6208
0.00235776	66.8128
0.00237137	67.0054
0.00238506	67.1985
0.00239883	67.3922
0.00241268	67.5865
0.00242661	67.7813
0.00244062	67.9767
0.00245471	68.1726
0.00246888	68.3691
0.00248313	68.5662
0.00249747	68.7638
0.00251189	68.962
0.00252639	69.1608
0.00254097	69.3601
0.00255564	69.56
0.0025704	69.7605
0.00258523	69.9616
0.00260016	70.1633
0.00261517	70.3655
0.00263027	70.5683
0.00264545	70.7717
0.00266073	70.9757
0.00267609	71.1803
0.00269153	71.3855
0.00270707	71.5912
0.0027227	71.7976
0.00273842	72.0045
0.00275423	72.2121
0.00277013	72.4202
0.00278612	72.629
0.00280221	72.8383
0.00281838	73.0482
0.00283465	73.2588
0.00285102	73.47
0.00286748	73.6817
0.00288403	73.8941
0.00290068	74.1071
0.00291743	74.3207
0.00293427	74.5349
0.00295121	74.7498
0.00296825	74.9652
0.00298538	75.1813
0.00300262	75.398
0.00301995	75.6153
0.00303739	75.8333
0.00305492	76.0518
0.00307256	76.2711
0.0030903	76.4909
0.00310814	76.7114
0.00312608	76.9325
0.00314413	77.1542
0.00316228	77.3766
0.00318053	77.5997
0.0031989	77.8233
0.00321736	78.0476
0.00323594	78.2726
0.00325462	78.4982
0.00327341	78.7245
0.0032923	78.9514
0.00331131	79.179
0.00333043	79.4072
0.00334965	79.6361
0.00336899	79.8656
0.00338844	80.0958
0.003408	80.3267
0.00342768	80.5582
0.00344747	80.7904
0.00346737	81.0233
0.00348739	81.2568
0.00350752	81.4885
0.00352777	81.7177
0.00354813	81.9475
0.00356862	82.1781
0.00358922	82.4093
0.00360994	82.6411
0.00363078	82.8736
0.00365174	83.1068
0.00367282	83.3407
0.00369403	83.5752
0.00371535	83.8104
0.0037368	84.0463
0.00375837	84.2829
0.00378007	84.5201
0.00380189	84.758
0.00382384	84.9967
0.00384592	85.236
0.00386812	85.476
0.00389045	85.7166
0.00391291	85.958
0.0039355	86.2001
0.00395822	86.4429
0.00398107	86.6863
0.00400405	86.9305
0.00402717	87.1754
0.00405042	87.4209
0.0040738	87.6672
0.00409732	87.9142
0.00412098	88.1619
0.00414477	88.4104
0.00416869	88.6595
0.00419276	88.9094
0.00421697	89.1599
0.00424131	89.4112
0.0042658	89.6633
0.00429042	89.916
0.00431519	90.1695
0.0043401	90.4237
0.00436516	90.6787
0.00439036	90.9343
0.0044157	91.1908
0.0044412	91.4479
0.00446684	91.7058
0.00449262	91.9645
0.00451856	92.2239
0.00454465	92.484
0.00457088	92.7449
0.00459727	93.0065
0.00462381	93.269
0.0046505	93.5321
0.00467735	93.796
0.00470435	94.0607
0.00473151	94.3262
0.00475883	94.5924
0.0047863	94.8593
0.00481393	95.1271
0.00484172	95.3956
0.00486968	95.6649
0.00489779	95.935
0.00492606	96.2059
0.0049545	96.4775
0.0049831	96.7499
0.00501187	97.0232
0.00504081	97.2972
0.00506991	97.572
0.00509918	97.8475
0.00512861	98.1239
0.00515822	98.4011
0.005188	98.6791
0.00521795	98.9579
0.00524807	99.2375
0.00527837	99.5179
0.00530884	99.7991
0.00533949	100.081
0.00537032	100.364
0.00540132	100.648
0.0054325	100.932
0.00546387	101.217
0.00549541	101.504
0.00552713	101.791
0.00555904	102.078
0.00559114	102.367
0.00562341	102.656
0.00565588	102.947
0.00568853	103.238
0.00572137	103.53
0.0057544	103.823
0.00578762	104.116
0.00582103	104.411
0.00585464	104.706
0.00588844	105.003
0.00592243	105.3
0.00595662	105.598
0.00599101	105.896
0.0060256	106.196
0.00606038	106.497
0.00609537	106.798
0.00613056	107.1
0.00616595	107.403
0.00620155	107.708
0.00623735	108.012
0.00627336	108.318
0.00630957	108.625
0.006346	108.933
0.00638263	109.241
0.00641948	109.55
0.00645654	109.861
0.00649382	110.172
0.00653131	110.484
0.00656901	110.797
0.00660693	111.111
0.00664508	111.426
0.00668344	111.741
0.00672202	112.058
0.00676083	112.376
0.00679986	112.694
0.00683912	113.013
0.0068786	113.334
0.00691831	113.655
0.00695825	113.977
0.00699842	114.3
0.00703882	114.624
0.00707946	114.949
0.00712033	115.275
0.00716143	115.602
0.00720278	115.93
0.00724436	116.259
0.00728618	116.588
0.00732825	116.919
0.00737055	117.251
0.0074131	117.583
0.0074559	117.917
0.00749894	118.252
0.00754223	118.587
0.00758578	118.924
0.00762957	119.261
0.00767361	119.6
0.00771792	119.939
0.00776247	120.279
0.00780728	120.621
0.00785236	120.963
0.00789769	121.307
0.00794328	121.651
0.00798914	121.997
0.00803526	122.343
0.00808165	122.69
0.00812831	123.039
0.00817523	123.388
0.00822243	123.739
0.0082699	124.09
0.00831764	124.443
0.00836566	124.796
0.00841395	125.151
0.00846253	125.506
0.00851138	125.863
0.00856052	126.221
0.00860994	126.579
0.00865964	126.939
0.00870964	127.3
0.00875992	127.662
0.00881049	128.025
0.00886135	128.389
0.00891251	128.754
0.00896396	129.12
0.00901571	129.487
0.00906776	129.855
0.00912011	130.224
0.00917276	130.595
0.00922571	130.966
0.00927897	131.339
0.00933254	131.712
0.00938642	132.087
0.00944061	132.463
0.00949511	132.84
0.00954993	133.218
0.00960506	133.597
0.00966051	133.977
0.00971628	134.358
0.00977237	134.741
0.00982879	135.124
0.00988553	135.509
0.0099426	135.895
0.01	136.282
0.0100577	136.67
0.0101158	137.059
0.0101742	137.449
0.0102329	137.84
0.010292	138.233
0.0103514	138.627
0.0104112	139.022
0.0104713	139.418
0.0105317	139.815
0.0105925	140.213
0.0106537	140.613
0.0107152	141.013
0.0107771	141.415
0.0108393	141.818
0.0109018	142.222
0.0109648	142.628
0.0110281	143.034
0.0110917	143.442
0.0111558	143.851
0.0112202	144.261
0.011285	144.672
0.0113501	145.085
0.0114156	145.498
0.0114815	145.913
0.0115478	146.329
0.0116145	146.747
0.0116815	147.165
0.011749	147.585
0.0118168	148.006
0.011885	148.428
0.0119536	148.852
0.0120226	149.277
0.0120921	149.703
0.0121619	150.13
0.0122321	150.558
0.0123027	150.988
0.0123737	151.419
0.0124451	151.851
0.012517	152.285
0.0125893	152.719
0.0126619	153.155
0.012735	153.593
0.0128086	154.031
0.0128825	154.471
0.0129569	154.912
0.0130317	155.355
0.0131069	155.798
0.0131826	156.244
0.0132587	156.69
0.0133352	157.137
0.0134122	157.586
0.0134896	158.037
0.0135675	158.488
0.0136458	158.941
0.0137246	159.395
0.0138038	159.851
0.0138835	160.308
0.0139637	160.766
0.0140443	161.028
0.0141254	161.135
0.0142069	161.244
0.0142889	161.353
0.0143714	161.464
0.0144544	161.575
0.0145378	161.688
0.0146218	161.802
0.0147062	161.917
0.0147911	162.033
0.0148765	162.15
0.0149624	162.268
0.0150487	162.387
0.0151356	162.507
0.015223	162.628
0.0153109	162.75
0.0153993	162.873
0.0154882	162.997
0.0155776	163.122
0.0156675	163.247
0.015758	163.374
0.0158489	163.501
0.0159404	163.63
0.0160325	163.759
0.016125	163.889
0.0162181	164.02
0.0163117	164.152
0.0164059	164.285
0.0165006	164.418
0.0165959	164.553
0.0166917	164.688
0.016788	164.824
0.016885	164.961
0.0169824	165.098
0.0170805	165.236
0.0171791	165.375
0.0172783	165.515
0.017378	165.656
0.0174783	165.797
0.0175792	165.939
0.0176807	166.082
0.0177828	166.225
0.0178855	166.369
0.0179887	166.514
0.0180926	166.66
0.018197	166.806
0.0183021	166.953
0.0184077	167.101
0.018514	167.249
0.0186209	167.398
0.0187284	167.548
0.0188365	167.698
0.0189452	167.849
0.0190546	168
0.0191646	168.153
0.0192752	168.306
0.0193865	168.459
0.0194984	168.613
0.019611	168.768
0.0197242	168.923
0.0198381	169.079
0.0199526	169.236
0.0200678	169.393
0.0201837	169.551
0.0203002	169.709
0.0204174	169.868
0.0205353	170.028
0.0206538	170.188
0.020773	170.349
0.020893	170.51
0.0210136	170.672
0.0211349	170.834
0.0212569	170.997
0.0213796	171.161
0.021503	171.325
0.0216272	171.49
0.021752	171.655
0.0218776	171.821
0.0220039	171.987
0.0221309	172.154
0.0222587	172.322
0.0223872	172.49
0.0225165	172.659
0.0226464	172.828
0.0227772	172.998
0.0229087	173.168
0.0230409	173.339
0.0231739	173.51
0.0233077	173.682
0.0234423	173.855
0.0235776	174.028
0.0237137	174.202
0.0238506	174.376
0.0239883	174.551
0.0241268	174.726
0.0242661	174.902
0.0244062	175.078
0.0245471	175.255
0.0246888	175.432
0.0248313	175.61
0.0249747	175.789
0.0251189	175.968
0.0252639	176.147
0.0254097	176.328
0.0255564	176.508
0.025704	176.69
0.0258523	176.871
0.0260016	177.054
0.0261517	177.237
0.0263027	177.42
0.0264545	177.604
0.0266073	177.789
0.0267609	177.974
0.0269153	178.16
0.0270707	178.346
0.027227	178.533
0.0273842	178.72
0.0275423	178.908
0.0277013	179.097
0.0278612	179.286
0.0280221	179.475
0.0281838	179.666
0.0283465	179.856
0.0285102	180.048
0.0286748	180.24
0.0288403	180.432
0.0290068	180.625
0.0291743	180.819
0.0293427	181.013
0.0295121	181.208
0.0296825	181.404
0.0298538	181.6
0.0300262	181.796
0.0301995	181.993
0.0303739	182.191
0.0305492	182.39
0.0307256	182.589
0.030903	182.788
0.0310814	182.989
0.0312608	183.19
0.0314413	183.391
0.0316228	183.593
0.0318053	183.796
0.031989	183.999
0.0321736	184.203
0.0323594	184.408
0.0325462	184.613
0.0327341	184.819
0.032923	185.026
0.0331131	185.233
0.0333043	185.441
0.0334965	185.649
0.0336899	185.858
0.0338844	186.068
0.03408	186.279
0.0342768	186.49
0.0344747	186.702
0.0346737	186.914
0.0348739	187.127
0.0350752	187.341
0.0352777	187.556
0.0354813	187.771
0.0356862	187.987
0.0358922	188.203
0.0360994	188.421
0.0363078	188.639
0.0365174	188.858
0.0367282	189.077
0.0369403	189.297
0.0371535	189.518
0.037368	189.74
0.0375837	189.962
0.0378007	190.185
0.0380189	190.409
0.0382384	190.633
0.0384592	190.859
0.0386812	191.085
0.0389045	191.311
0.0391291	191.539
0.039355	191.767
0.0395822	191.996
0.0398107	192.226
0.0400405	192.457
0.0402717	192.688
0.0405042	192.92
0.040738	193.153
0.0409732	193.387
0.0412098	193.622
0.0414477	193.857
0.0416869	194.093
0.0419276	194.33
0.0421697	194.568
0.0424131	194.807
0.042658	195.046
0.0429042	195.286
0.0431519	195.527
0.043401	195.769
0.0436516	196.012
0.0439036	196.256
0.044157	196.5
0.044412	196.746
0.0446684	196.992
0.0449262	197.239
0.0451856	197.487
0.0454465	197.736
0.0457088	197.985
0.0459727	198.236
0.0462381	198.487
0.046505	198.74
0.0467735	198.993
0.0470435	199.247
0.0473151	199.502
0.0475883	199.758
0.047863	200.015
0.0481393	200.273
0.0484172	200.532
0.0486968	200.792
0.0489779	201.052
0.0492606	201.314
0.049545	201.577
0.049831	201.84
0.0501187	202.105
0.0504081	202.37
0.0506991	202.636
0.0509918	202.904
0.0512861	203.172
0.0515822	203.442
0.05188	203.712
0.0521795	203.983
0.0524807	204.255
0.0527837	204.529
0.0530884	204.803
0.0533949	205.079
0.0537032	205.355
0.0540132	205.632
0.054325	205.911
0.0546387	206.19
0.0549541	206.471
0.0552713	206.752
0.0555904	207.035
0.0559114	207.319
0.0562341	207.603
0.0565588	207.889
0.0568853	208.176
0.0572137	208.464
0.057544	208.753
0.0578762	209.043
0.0582103	209.334
0.0585464	209.626
0.0588844	209.92
0.0592243	210.214
0.0595662	210.51
0.0599101	210.807
0.060256	211.104
0.0606038	211.403
0.0609537	211.704
0.0613056	212.005
0.0616595	212.307
0.0620155	212.611
0.0623735	212.915
0.0627336	213.221
0.0630957	213.528
0.06346	213.836
0.0638263	214.146
0.0641948	214.456
0.0645654	214.768
0.0649382	215.081
0.0653131	215.395
0.0656901	215.71
0.0660693	216.027
0.0664508	216.344
0.0668344	216.663
0.0672202	216.983
0.0676083	217.305
0.0679986	217.627
0.0683912	217.951
0.068786	218.276
0.0691831	218.603
0.0695825	218.93
0.0699842	219.259
0.0703882	219.589
0.0707946	219.92
0.0712033	220.253
0.0716143	220.587
0.0720278	220.922
0.0724436	221.258
0.0728618	221.596
0.0732825	221.935
0.0737055	222.275
0.074131	222.617
0.074559	222.96
0.0749894	223.304
0.0754223	223.65
0.0758578	223.997
0.0762957	224.345
0.0767361	224.695
0.0771792	225.046
0.0776247	225.398
0.0780728	225.751
0.0785236	226.106
0.0789769	226.463
0.0794328	226.82
0.0798914	227.179
0.0803526	227.54
0.0808165	227.902
0.0812831	228.265
0.0817523	228.629
0.0822243	228.995
0.082699	229.363
0.0831764	229.732
0.0836566	230.102
0.0841395	230.473
0.0846253	230.846
0.0851138	231.221
0.0856052	231.597
0.0860994	231.974
0.0865964	232.353
0.0870964	232.733
0.0875992	233.115
0.0881049	233.498
0.0886135	233.882
0.0891251	234.268
0.0896396	234.656
0.0901571	235.045
0.0906776	235.435
0.0912011	235.827
0.0917276	236.221
0.0922571	236.616
0.0927897	237.012
0.0933254	237.41
0.0938642	237.809
0.0944061	238.21
0.0949511	238.613
0.0954993	239.017
0.0960506	239.422
0.0966051	239.829
0.0971628	240.238
0.0977237	240.648
0.0982879	241.06
0.0988553	241.473
0.099426	241.887
0.1	242.304
0.100577	242.722
0.101158	243.141
0.101742	243.562
0.102329	243.985
0.10292	244.409
0.103514	244.834
0.104112	245.262
0.104713	245.691
0.105317	246.121
0.105925	246.553
0.106537	246.987
0.107152	247.422
0.107771	247.859
0.108393	248.298
0.109018	248.738
0.109648	249.18
0.110281	249.623
0.110917	250.068
0.111558	250.515
0.112202	250.963
0.11285	251.414
0.113501	251.865
0.114156	252.319
0.114815	252.774
0.115478	253.23
0.116145	253.688
0.116815	254.148
0.11749	254.61
0.118168	255.074
0.11885	255.539
0.119536	256.005
0.120226	256.474
0.120921	256.944
0.121619	257.416
0.122321	257.889
0.123027	258.364
0.123737	258.841
0.124451	259.32
0.12517	259.8
0.125893	260.283
0.126619	260.766
0.12735	261.252
0.128086	261.739
0.128825	262.228
0.129569	262.719
0.130317	263.212
0.131069	263.706
0.131826	264.202
0.132587	264.7
0.133352	265.199
0.134122	265.701
0.134896	266.204
0.135675	266.708
0.136458	267.215
0.137246	267.723
0.138038	268.234
0.138835	268.746
0.139637	269.259
0.140443	269.775
0.141254	270.292
0.142069	270.811
0.142889	271.332
0.143714	271.855
0.144544	272.379
0.145378	272.906
0.146218	273.434
0.147062	273.964
0.147911	274.496
0.148765	275.029
0.149624	275.565
0.150487	276.102
0.151356	276.641
0.15223	277.182
0.153109	277.724
0.153993	278.269
0.154882	278.815
0.155776	279.363
0.156675	279.913
0.15758	280.465
0.158489	281.019
0.159404	281.575
0.160325	282.132
0.16125	282.691
0.162181	283.252
0.163117	283.815
0.164059	284.38
0.165006	284.947
0.165959	285.515
0.166917	286.086
0.16788	286.658
0.16885	287.232
0.169824	287.808
0.170805	288.386
0.171791	288.965
0.172783	289.547
0.17378	290.13
0.174783	290.716
0.175792	291.303
0.176807	291.892
0.177828	292.483
0.178855	293.076
0.179887	293.67
0.180926	294.267
0.18197	294.865
0.183021	295.466
0.184077	296.068
0.18514	296.672
0.186209	297.278
0.187284	297.886
0.188365	298.495
0.189452	299.107
0.190546	299.72
0.191646	300.336
0.192752	301.266
0.193865	302.244
0.194984	303.227
0.19611	304.216
0.197242	305.211
0.198381	306.212
0.199526	307.219
0.200678	308.232
0.201837	309.251
0.203002	310.276
0.204174	311.308
0.205353	312.346
0.206538	313.39
0.20773	314.44
0.20893	315.497
0.210136	316.56
0.211349	317.63
0.212569	318.706
0.213796	319.789
0.21503	320.878
0.216272	321.974
0.21752	323.077
0.218776	324.186
0.220039	325.303
0.221309	326.426
0.222587	327.556
0.223872	328.693
0.225165	329.837
0.226464	330.988
0.227772	332.146
0.229087	333.311
0.230409	334.484
0.231739	335.664
0.233077	336.851
0.234423	338.045
0.235776	339.247
0.237137	340.457
0.238506	341.674
0.239883	342.898
0.241268	344.13
0.242661	345.37
0.244062	346.618
0.245471	347.873
0.246888	349.137
0.248313	350.408
0.249747	351.687
0.251189	352.975
0.252639	354.27
0.254097	355.574
0.255564	356.885
0.25704	358.206
0.258523	359.534
0.260016	360.871
0.261517	362.216
0.263027	363.57
0.264545	364.933
0.266073	366.304
0.267609	367.684
0.269153	369.073
0.270707	370.47
0.27227	371.877
0.273842	373.292
0.275423	374.717
0.277013	376.151
0.278612	377.594
0.280221	379.046
0.281838	380.508
0.283465	381.979
0.285102	383.459
0.286748	384.949
0.288403	386.449
0.290068	387.959
0.291743	389.478
0.293427	391.007
0.295121	392.546
0.296825	394.095
0.298538	395.654
0.300262	397.223
0.301995	398.803
0.303739	400.393
0.305492	401.993
0.307256	403.604
0.30903	405.225
0.310814	406.857
0.312608	408.5
0.314413	410.153
0.316228	411.818
0.318053	413.493
0.31989	415.179
0.321736	416.877
0.323594	418.585
0.325462	420.305
0.327341	422.037
0.32923	423.78
0.331131	425.534
0.333043	427.301
0.334965	429.078
0.336899	430.868
0.338844	432.67
0.3408	434.484
0.342768	435.969
0.344747	437.803
0.346737	439.649
0.348739	441.507
0.350752	443.377
0.352777	445.127
0.354813	446.754
0.356862	448.39
0.358922	450.033
0.360994	451.683
0.363078	453.342
0.365174	455.008
0.367282	456.682
0.369403	458.363
0.371535	460.053
0.37368	461.75
0.375837	463.455
0.378007	465.168
0.380189	466.889
0.382384	468.618
0.384592	470.354
0.386812	472.099
0.389045	473.851
0.391291	475.611
0.39355	477.38
0.395822	479.156
0.398107	480.94
0.400405	482.732
0.402717	484.532
0.405042	486.34
0.40738	488.157
0.409732	489.981
0.412098	491.813
0.414477	493.653
0.416869	495.501
0.419276	497.358
0.421697	499.222
0.424131	501.095
0.42658	502.975
0.429042	504.864
0.431519	506.761
0.43401	508.666
0.436516	510.579
0.439036	512.5
0.44157	514.43
0.44412	516.367
0.446684	518.313
0.449262	520.266
0.451856	522.228
0.454465	524.198
0.457088	526.177
0.459727	528.163
0.462381	530.158
0.46505	532.161
0.467735	534.171
0.470435	536.191
0.473151	538.218
0.475883	540.253
0.47863	542.297
0.481393	544.349
0.484172	546.408
0.486968	548.477
0.489779	550.553
0.492606	552.637
0.49545	554.73
0.49831	556.83
0.501187	558.939
0.504081	561.056
0.506991	563.181
0.509918	565.314
0.512861	567.456
0.515822	569.605
0.5188	571.762
0.521795	573.928
0.524807	576.101
0.527837	578.283
0.530884	580.473
0.533949	582.67
0.537032	584.876
0.540132	587.09
0.54325	589.311
0.546387	591.541
0.549541	593.779
0.552713	596.024
0.555904	598.277
0.559114	600.539
0.562341	602.808
0.565588	605.085
0.568853	607.37
0.572137	609.662
0.57544	611.963
0.578762	614.271
0.582103	616.587
0.585464	618.91
0.588844	621.242
0.592243	623.581
0.595662	625.927
0.599101	628.281
0.60256	630.643
0.606038	633.012
0.609537	635.389
0.613056	637.773
