Stopping power dEdx from Ionisation for N14[0.0] Z = 7 in Water, process name: ionIoni
E [MeV]	dEdx [MeV/mm]
0.001	24.1877
0.00100577	24.2578
0.00101158	24.3282
0.00101742	24.3987
0.00102329	24.4695
0.0010292	24.5404
0.00103514	24.6116
0.00104112	24.683
0.00104713	24.7545
0.00105317	24.8263
0.00105925	24.8983
0.00106537	24.9705
0.00107152	25.0429
0.00107771	25.1155
0.00108393	25.1883
0.00109018	25.2613
0.00109648	25.3346
0.00110281	25.408
0.00110917	25.4817
0.00111558	25.5556
0.00112202	25.6297
0.0011285	25.704
0.00113501	25.7785
0.00114156	25.8532
0.00114815	25.9281
0.00115478	26.0033
0.00116145	26.0787
0.00116815	26.1543
0.0011749	26.2301
0.00118168	26.3061
0.0011885	26.3824
0.00119536	26.4588
0.00120226	26.5355
0.00120921	26.6125
0.00121619	26.6896
0.00122321	26.7669
0.00123027	26.8445
0.00123737	26.9223
0.00124451	27.0004
0.0012517	27.0786
0.00125893	27.1571
0.00126619	27.2358
0.0012735	27.3147
0.00128086	27.3939
0.00128825	27.4733
0.00129569	27.5529
0.00130317	27.6327
0.00131069	27.7128
0.00131826	27.7931
0.00132587	27.8736
0.00133352	27.9544
0.00134122	28.0354
0.00134896	28.1166
0.00135675	28.1981
0.00136458	28.2798
0.00137246	28.3618
0.00138038	28.4439
0.00138835	28.5263
0.00139637	28.609
0.00140443	28.6919
0.00141254	28.775
0.00142069	28.8584
0.00142889	28.942
0.00143714	29.0258
0.00144544	29.1099
0.00145378	29.1943
0.00146218	29.2788
0.00147062	29.3637
0.00147911	29.4487
0.00148765	29.534
0.00149624	29.6196
0.00150487	29.7054
0.00151356	29.7914
0.0015223	29.8777
0.00153109	29.9643
0.00153993	30.0511
0.00154882	30.1381
0.00155776	30.2254
0.00156675	30.313
0.0015758	30.4008
0.00158489	30.4888
0.00159404	30.5771
0.00160325	30.6657
0.0016125	30.7545
0.00162181	30.8436
0.00163117	30.9329
0.00164059	31.0225
0.00165006	31.1123
0.00165959	31.2024
0.00166917	31.2928
0.0016788	31.3834
0.0016885	31.4743
0.00169824	31.5655
0.00170805	31.6569
0.00171791	31.7485
0.00172783	31.8405
0.0017378	31.9327
0.00174783	32.0252
0.00175792	32.1179
0.00176807	32.2109
0.00177828	32.3042
0.00178855	32.3977
0.00179887	32.4915
0.00180926	32.5856
0.0018197	32.6799
0.00183021	32.7746
0.00184077	32.8695
0.0018514	32.9646
0.00186209	33.0601
0.00187284	33.1558
0.00188365	33.2518
0.00189452	33.3481
0.00190546	33.4446
0.00191646	33.5414
0.00192752	33.6385
0.00193865	33.7359
0.00194984	33.8336
0.0019611	33.9315
0.00197242	34.0298
0.00198381	34.1283
0.00199526	34.2271
0.00200678	34.3262
0.00201837	34.4255
0.00203002	34.5252
0.00204174	34.6251
0.00205353	34.7253
0.00206538	34.8259
0.0020773	34.9267
0.0020893	35.0278
0.00210136	35.1292
0.00211349	35.2308
0.00212569	35.3328
0.00213796	35.4351
0.0021503	35.5377
0.00216272	35.6405
0.0021752	35.7437
0.00218776	35.8471
0.00220039	35.9509
0.00221309	36.0549
0.00222587	36.1593
0.00223872	36.2639
0.00225165	36.3689
0.00226464	36.4741
0.00227772	36.5797
0.00229087	36.6856
0.00230409	36.7917
0.00231739	36.8982
0.00233077	37.005
0.00234423	37.1121
0.00235776	37.2195
0.00237137	37.3272
0.00238506	37.4352
0.00239883	37.5435
0.00241268	37.6522
0.00242661	37.7611
0.00244062	37.8704
0.00245471	37.98
0.00246888	38.0899
0.00248313	38.2001
0.00249747	38.3106
0.00251189	38.4215
0.00252639	38.5326
0.00254097	38.6441
0.00255564	38.756
0.0025704	38.8681
0.00258523	38.9805
0.00260016	39.0933
0.00261517	39.2064
0.00263027	39.3199
0.00264545	39.4336
0.00266073	39.5477
0.00267609	39.6621
0.00269153	39.7769
0.00270707	39.892
0.0027227	40.0074
0.00273842	40.1231
0.00275423	40.2392
0.00277013	40.3556
0.00278612	40.4724
0.00280221	40.5894
0.00281838	40.7069
0.00283465	40.8246
0.00285102	40.9427
0.00286748	41.0612
0.00288403	41.1799
0.00290068	41.2991
0.00291743	41.4185
0.00293427	41.5383
0.00295121	41.6585
0.00296825	41.779
0.00298538	41.8998
0.00300262	42.021
0.00301995	42.1426
0.00303739	42.2645
0.00305492	42.3867
0.00307256	42.5093
0.0030903	42.6323
0.00310814	42.7556
0.00312608	42.8793
0.00314413	43.0033
0.00316228	43.1277
0.00318053	43.2524
0.0031989	43.3775
0.00321736	43.503
0.00323594	43.6288
0.00325462	43.755
0.00327341	43.8815
0.0032923	44.0084
0.00331131	44.1357
0.00333043	44.2633
0.00334965	44.3913
0.00336899	44.5197
0.00338844	44.6485
0.003408	44.7776
0.00342768	44.9071
0.00344747	45.037
0.00346737	45.1672
0.00348739	45.2978
0.00350752	45.4288
0.00352777	45.5602
0.00354813	45.6919
0.00356862	45.824
0.00358922	45.9566
0.00360994	46.0894
0.00363078	46.2227
0.00365174	46.3564
0.00367282	46.4904
0.00369403	46.6249
0.00371535	46.7597
0.0037368	46.8949
0.00375837	47.0305
0.00378007	47.1665
0.00380189	47.3028
0.00382384	47.4396
0.00384592	47.5768
0.00386812	47.7143
0.00389045	47.8523
0.00391291	47.9906
0.0039355	48.1294
0.00395822	48.2686
0.00398107	48.4081
0.00400405	48.5481
0.00402717	48.6884
0.00405042	48.8292
0.0040738	48.9704
0.00409732	49.1119
0.00412098	49.2539
0.00414477	49.3963
0.00416869	49.5391
0.00419276	49.6823
0.00421697	49.826
0.00424131	49.97
0.0042658	50.1145
0.00429042	50.2594
0.00431519	50.4046
0.0043401	50.5504
0.00436516	50.6965
0.00439036	50.843
0.0044157	50.99
0.0044412	51.1374
0.00446684	51.2852
0.00449262	51.4335
0.00451856	51.5822
0.00454465	51.7313
0.00457088	51.8808
0.00459727	52.0308
0.00462381	52.1812
0.0046505	52.332
0.00467735	52.4833
0.00470435	52.635
0.00473151	52.7871
0.00475883	52.9397
0.0047863	53.0927
0.00481393	53.2462
0.00484172	53.4001
0.00486968	53.5544
0.00489779	53.7092
0.00492606	53.8645
0.0049545	54.0201
0.0049831	54.1763
0.00501187	54.3329
0.00504081	54.4899
0.00506991	54.6474
0.00509918	54.8053
0.00512861	54.9637
0.00515822	55.1226
0.005188	55.2819
0.00521795	55.4416
0.00524807	55.6019
0.00527837	55.7626
0.00530884	55.9237
0.00533949	56.0853
0.00537032	56.2474
0.00540132	56.41
0.0054325	56.573
0.00546387	56.7365
0.00549541	56.9005
0.00552713	57.0649
0.00555904	57.2298
0.00559114	57.3952
0.00562341	57.5611
0.00565588	57.7274
0.00568853	57.8942
0.00572137	58.0615
0.0057544	58.2293
0.00578762	58.3976
0.00582103	58.5663
0.00585464	58.7355
0.00588844	58.9053
0.00592243	59.2235
0.00595662	59.3942
0.00599101	59.5654
0.0060256	59.7371
0.00606038	59.9093
0.00609537	60.082
0.00613056	60.2552
0.00616595	60.4289
0.00620155	60.603
0.00623735	60.7777
0.00627336	60.9529
0.00630957	61.1286
0.006346	61.3048
0.00638263	61.4815
0.00641948	61.6587
0.00645654	61.8364
0.00649382	62.0147
0.00653131	62.1934
0.00656901	62.3727
0.00660693	62.5525
0.00664508	62.7328
0.00668344	62.9136
0.00672202	63.0949
0.00676083	63.2768
0.00679986	63.4592
0.00683912	63.6421
0.0068786	63.8255
0.00691831	64.0095
0.00695825	64.194
0.00699842	64.379
0.00703882	64.5646
0.00707946	64.7507
0.00712033	64.9373
0.00716143	65.1245
0.00720278	65.3122
0.00724436	65.5005
0.00728618	65.6893
0.00732825	65.8786
0.00737055	66.0685
0.0074131	66.2589
0.0074559	66.4499
0.00749894	66.6414
0.00754223	66.8335
0.00758578	67.0262
0.00762957	67.2194
0.00767361	67.4131
0.00771792	67.6074
0.00776247	67.8023
0.00780728	67.9977
0.00785236	68.1937
0.00789769	68.3903
0.00794328	68.5874
0.00798914	68.7851
0.00803526	68.9834
0.00808165	69.1822
0.00812831	69.3816
0.00817523	69.5816
0.00822243	69.7822
0.0082699	69.9833
0.00831764	70.185
0.00836566	70.3873
0.00841395	70.5902
0.00846253	70.7937
0.00851138	70.9977
0.00856052	71.2024
0.00860994	71.4076
0.00865964	71.6134
0.00870964	71.8198
0.00875992	72.0268
0.00881049	72.2345
0.00886135	72.4427
0.00891251	72.6515
0.00896396	72.8609
0.00901571	73.0709
0.00906776	73.2815
0.00912011	73.4927
0.00917276	73.7046
0.00922571	73.917
0.00927897	74.1301
0.00933254	74.3437
0.00938642	74.558
0.00944061	74.7729
0.00949511	74.9884
0.00954993	75.2046
0.00960506	75.4214
0.00966051	75.6388
0.00971628	75.8568
0.00977237	76.0754
0.00982879	76.2947
0.00988553	76.5146
0.0099426	76.7352
0.01	76.9563
0.0100577	77.1782
0.0101158	77.4006
0.0101742	77.6237
0.0102329	77.8474
0.010292	78.0718
0.0103514	78.2969
0.0104112	78.5225
0.0104713	78.7489
0.0105317	78.9759
0.0105925	79.2035
0.0106537	79.4318
0.0107152	79.6607
0.0107771	79.8904
0.0108393	80.1206
0.0109018	80.3516
0.0109648	80.5832
0.0110281	80.8154
0.0110917	81.0484
0.0111558	81.282
0.0112202	81.5163
0.011285	81.7512
0.0113501	81.9869
0.0114156	82.2232
0.0114815	82.4602
0.0115478	82.6979
0.0116145	82.9362
0.0116815	83.1753
0.011749	83.415
0.0118168	83.6555
0.011885	83.8966
0.0119536	84.1384
0.0120226	84.3809
0.0120921	84.6242
0.0121619	84.8681
0.0122321	85.1127
0.0123027	85.358
0.0123737	85.6041
0.0124451	85.8508
0.012517	86.0983
0.0125893	86.3464
0.0126619	86.5953
0.012735	86.8449
0.0128086	87.0952
0.0128825	87.3463
0.0129569	87.598
0.0130317	87.8505
0.0131069	88.1037
0.0131826	88.3577
0.0132587	88.6124
0.0133352	88.8678
0.0134122	89.1239
0.0134896	89.3808
0.0135675	89.6385
0.0136458	89.8968
0.0137246	90.1559
0.0138038	90.4158
0.0138835	90.6764
0.0139637	90.9378
0.0140443	91.1999
0.0141254	91.4628
0.0142069	91.7264
0.0142889	91.9908
0.0143714	92.2559
0.0144544	92.5219
0.0145378	92.7885
0.0146218	93.056
0.0147062	93.3242
0.0147911	93.5932
0.0148765	93.863
0.0149624	94.1335
0.0150487	94.4049
0.0151356	94.677
0.015223	94.9499
0.0153109	95.2236
0.0153993	95.498
0.0154882	95.7733
0.0155776	96.0493
0.0156675	96.3262
0.015758	96.6038
0.0158489	96.8823
0.0159404	97.1615
0.0160325	97.4416
0.016125	97.7225
0.0162181	98.0041
0.0163117	98.2866
0.0164059	98.5699
0.0165006	98.854
0.0165959	99.139
0.0166917	99.4247
0.016788	99.7113
0.016885	99.9987
0.0169824	100.287
0.0170805	100.576
0.0171791	100.866
0.0172783	101.157
0.017378	101.448
0.0174783	101.741
0.0175792	102.034
0.0176807	102.328
0.0177828	102.623
0.0178855	102.919
0.0179887	103.215
0.0180926	103.513
0.018197	103.811
0.0183021	104.11
0.0184077	104.411
0.018514	104.711
0.0186209	105.013
0.0187284	105.316
0.0188365	105.62
0.0189452	105.924
0.0190546	106.229
0.0191646	106.536
0.0192752	106.843
0.0193865	107.151
0.0194984	107.459
0.019611	107.769
0.0197242	108.08
0.0198381	108.391
0.0199526	108.704
0.0200678	109.017
0.0201837	109.331
0.0203002	109.646
0.0204174	109.962
0.0205353	110.279
0.0206538	110.597
0.020773	110.916
0.020893	111.236
0.0210136	111.556
0.0211349	111.878
0.0212569	112.2
0.0213796	112.524
0.021503	112.848
0.0216272	113.173
0.021752	113.5
0.0218776	113.827
0.0220039	114.155
0.0221309	114.484
0.0222587	114.814
0.0223872	115.145
0.0225165	115.477
0.0226464	115.81
0.0227772	116.143
0.0229087	116.478
0.0230409	116.814
0.0231739	117.151
0.0233077	117.488
0.0234423	117.827
0.0235776	118.166
0.0237137	118.507
0.0238506	118.849
0.0239883	119.191
0.0241268	119.535
0.0242661	119.879
0.0244062	120.225
0.0245471	120.571
0.0246888	120.919
0.0248313	121.267
0.0249747	121.617
0.0251189	121.968
0.0252639	122.319
0.0254097	122.672
0.0255564	123.025
0.025704	123.38
0.0258523	123.736
0.0260016	124.092
0.0261517	124.45
0.0263027	124.809
0.0264545	125.168
0.0266073	125.529
0.0267609	125.891
0.0269153	126.254
0.0270707	126.618
0.027227	126.983
0.0273842	127.349
0.0275423	127.716
0.0277013	128.084
0.0278612	128.453
0.0280221	128.823
0.0281838	129.195
0.0283465	129.567
0.0285102	129.94
0.0286748	130.315
0.0288403	130.691
0.0290068	131.067
0.0291743	131.445
0.0293427	131.824
0.0295121	132.204
0.0296825	132.585
0.0298538	132.967
0.0300262	133.35
0.0301995	133.735
0.0303739	134.12
0.0305492	134.507
0.0307256	134.895
0.030903	135.283
0.0310814	135.673
0.0312608	136.064
0.0314413	136.457
0.0316228	136.85
0.0318053	137.244
0.031989	137.64
0.0321736	138.037
0.0323594	138.435
0.0325462	138.834
0.0327341	139.234
0.032923	139.635
0.0331131	140.038
0.0333043	140.441
0.0334965	140.846
0.0336899	141.252
0.0338844	141.659
0.03408	142.067
0.0342768	142.477
0.0344747	142.888
0.0346737	143.299
0.0348739	143.712
0.0350752	144.127
0.0352777	144.542
0.0354813	144.959
0.0356862	145.377
0.0358922	145.796
0.0360994	146.216
0.0363078	146.637
0.0365174	147.06
0.0367282	147.484
0.0369403	147.909
0.0371535	148.335
0.037368	148.763
0.0375837	149.192
0.0378007	149.622
0.0380189	150.053
0.0382384	150.485
0.0384592	150.919
0.0386812	151.354
0.0389045	151.79
0.0391291	152.228
0.039355	152.667
0.0395822	153.107
0.0398107	153.548
0.0400405	153.991
0.0402717	154.435
0.0405042	154.88
0.040738	155.326
0.0409732	155.774
0.0412098	156.223
0.0414477	156.673
0.0416869	157.125
0.0419276	157.578
0.0421697	158.032
0.0424131	158.487
0.042658	158.944
0.0429042	159.402
0.0431519	159.862
0.043401	160.322
0.0436516	160.785
0.0439036	161.248
0.044157	161.713
0.044412	162.179
0.0446684	162.646
0.0449262	163.115
0.0451856	163.585
0.0454465	164.057
0.0457088	164.53
0.0459727	165.004
0.0462381	165.48
0.046505	165.957
0.0467735	166.435
0.0470435	166.915
0.0473151	167.396
0.0475883	167.878
0.047863	168.362
0.0481393	168.847
0.0484172	169.334
0.0486968	169.822
0.0489779	170.312
0.0492606	170.803
0.049545	171.295
0.049831	171.789
0.0501187	172.284
0.0504081	172.78
0.0506991	173.278
0.0509918	173.778
0.0512861	174.279
0.0515822	174.781
0.05188	175.285
0.0521795	175.79
0.0524807	176.297
0.0527837	176.805
0.0530884	177.315
0.0533949	177.826
0.0537032	178.338
0.0540132	178.852
0.054325	179.368
0.0546387	179.885
0.0549541	180.403
0.0552713	180.923
0.0555904	181.445
0.0559114	181.968
0.0562341	182.492
0.0565588	183.018
0.0568853	183.546
0.0572137	184.075
0.057544	184.605
0.0578762	185.137
0.0582103	185.671
0.0585464	186.206
0.0588844	186.743
0.0592243	187.281
0.0595662	187.821
0.0599101	188.362
0.060256	188.905
0.0606038	189.45
0.0609537	189.996
0.0613056	190.544
0.0616595	191.093
0.0620155	191.644
0.0623735	192.196
0.0627336	192.75
0.0630957	193.306
0.06346	193.863
0.0638263	194.422
0.0641948	194.982
0.0645654	195.544
0.0649382	196.108
0.0653131	196.673
0.0656901	197.24
0.0660693	197.808
0.0664508	198.378
0.0668344	198.95
0.0672202	199.524
0.0676083	200.099
0.0679986	200.676
0.0683912	201.254
0.068786	201.834
0.0691831	202.416
0.0695825	202.999
0.0699842	203.584
0.0703882	204.171
0.0707946	204.76
0.0712033	205.35
0.0716143	205.942
0.0720278	206.535
0.0724436	207.131
0.0728618	207.728
0.0732825	208.326
0.0737055	208.927
0.074131	209.529
0.074559	210.133
0.0749894	210.739
0.0754223	211.346
0.0758578	211.955
0.0762957	212.566
0.0767361	213.179
0.0771792	213.793
0.0776247	214.41
0.0780728	215.028
0.0785236	215.647
0.0789769	216.269
0.0794328	216.892
0.0798914	217.518
0.0803526	218.145
0.0808165	218.773
0.0812831	219.404
0.0817523	220.036
0.0822243	220.671
0.082699	221.307
0.0831764	221.944
0.0836566	222.584
0.0841395	223.226
0.0846253	223.869
0.0851138	224.514
0.0856052	225.162
0.0860994	225.811
0.0865964	226.461
0.0870964	227.114
0.0875992	227.769
0.0881049	228.425
0.0886135	229.084
0.0891251	229.744
0.0896396	230.406
0.0901571	231.07
0.0906776	231.736
0.0912011	232.404
0.0917276	233.074
0.0922571	233.746
0.0927897	234.42
0.0933254	235.096
0.0938642	235.773
0.0944061	236.453
0.0949511	237.134
0.0954993	237.818
0.0960506	238.503
0.0966051	239.191
0.0971628	239.88
0.0977237	240.572
0.0982879	241.265
0.0988553	241.96
0.099426	242.658
0.1	243.357
0.100577	244.059
0.101158	244.762
0.101742	245.468
0.102329	246.175
0.10292	246.885
0.103514	247.596
0.104112	248.31
0.104713	249.026
0.105317	249.744
0.105925	250.463
0.106537	251.185
0.107152	251.909
0.107771	252.635
0.108393	253.364
0.109018	254.094
0.109648	254.826
0.110281	255.561
0.110917	256.298
0.111558	257.036
0.112202	257.777
0.11285	258.52
0.113501	259.265
0.114156	260.013
0.114815	260.762
0.115478	261.514
0.116145	262.267
0.116815	263.023
0.11749	263.782
0.118168	264.542
0.11885	265.304
0.119536	266.069
0.120226	266.836
0.120921	267.605
0.121619	268.376
0.122321	269.15
0.123027	269.926
0.123737	270.704
0.124451	271.484
0.12517	272.267
0.125893	273.051
0.126619	273.838
0.12735	274.628
0.128086	275.419
0.128825	276.213
0.129569	277.009
0.130317	277.808
0.131069	278.609
0.131826	279.412
0.132587	280.217
0.133352	281.025
0.134122	281.835
0.134896	282.647
0.135675	283.462
0.136458	284.279
0.137246	285.098
0.138038	285.92
0.138835	286.744
0.139637	287.571
0.140443	288.399
0.141254	289.231
0.142069	290.064
0.142889	290.9
0.143714	291.739
0.144544	292.58
0.145378	293.423
0.146218	294.269
0.147062	295.117
0.147911	295.968
0.148765	296.821
0.149624	297.676
0.150487	298.534
0.151356	299.395
0.15223	300.258
0.153109	301.123
0.153993	301.991
0.154882	302.862
0.155776	303.735
0.156675	304.61
0.15758	305.488
0.158489	306.369
0.159404	307.252
0.160325	308.137
0.16125	309.026
0.162181	309.916
0.163117	310.81
0.164059	311.705
0.165006	312.604
0.165959	313.505
0.166917	314.409
0.16788	315.315
0.16885	316.224
0.169824	317.135
0.170805	318.049
0.171791	318.966
0.172783	319.885
0.17378	320.807
0.174783	321.732
0.175792	322.659
0.176807	323.589
0.177828	324.522
0.178855	325.458
0.179887	326.396
0.180926	327.336
0.18197	328.28
0.183021	329.226
0.184077	330.175
0.18514	331.127
0.186209	332.081
0.187284	333.038
0.188365	333.998
0.189452	334.961
0.190546	335.927
0.191646	336.895
0.192752	337.866
0.193865	338.84
0.194984	339.816
0.19611	340.796
0.197242	341.778
0.198381	342.763
0.199526	343.751
0.200678	344.742
0.201837	345.736
0.203002	346.732
0.204174	347.732
0.205353	348.734
0.206538	349.739
0.20773	350.747
0.20893	351.758
0.210136	352.772
0.211349	353.789
0.212569	354.809
0.213796	355.831
0.21503	356.857
0.216272	357.886
0.21752	358.917
0.218776	359.952
0.220039	360.989
0.221309	362.03
0.222587	363.073
0.223872	364.12
0.225165	365.169
0.226464	366.222
0.227772	367.278
0.229087	368.336
0.230409	369.398
0.231739	370.463
0.233077	371.53
0.234423	372.601
0.235776	373.675
0.237137	374.752
0.238506	375.833
0.239883	376.916
0.241268	378.002
0.242661	379.092
0.244062	380.184
0.245471	381.28
0.246888	382.379
0.248313	383.481
0.249747	384.587
0.251189	385.695
0.252639	386.807
0.254097	387.922
0.255564	389.04
0.25704	390.161
0.258523	391.286
0.260016	392.414
0.261517	393.545
0.263027	394.679
0.264545	395.817
0.266073	396.958
0.267609	398.102
0.269153	399.249
0.270707	400.4
0.27227	401.554
0.273842	402.712
0.275423	403.873
0.277013	405.037
0.278612	406.204
0.280221	407.375
0.281838	408.549
0.283465	409.727
0.285102	410.908
0.286748	412.092
0.288403	413.28
0.290068	414.471
0.291743	415.666
0.293427	416.864
0.295121	418.066
0.296825	419.271
0.298538	420.479
0.300262	421.691
0.301995	422.907
0.303739	424.125
0.305492	425.348
0.307256	426.574
0.30903	427.804
0.310814	429.037
0.312608	430.273
0.314413	431.513
0.316228	432.757
0.318053	434.005
0.31989	435.256
0.321736	436.51
0.323594	437.768
0.325462	439.03
0.327341	440.296
0.32923	441.565
0.331131	442.837
0.333043	444.114
0.334965	445.394
0.336899	446.678
0.338844	447.965
0.3408	449.257
0.342768	450.551
0.344747	451.85
0.346737	453.152
0.348739	454.459
0.350752	455.81
0.352777	457.236
0.354813	458.67
0.356862	460.111
0.358922	461.56
0.360994	463.016
0.363078	464.481
0.365174	465.952
0.367282	467.432
0.369403	468.919
0.371535	470.413
0.37368	471.915
0.375837	473.425
0.378007	474.943
0.380189	476.468
0.382384	478.001
0.384592	479.542
0.386812	481.09
0.389045	482.646
0.391291	484.21
0.39355	485.781
0.395822	487.361
0.398107	488.947
0.400405	490.542
0.402717	492.144
0.405042	493.754
0.40738	495.372
0.409732	496.998
0.412098	498.631
0.414477	500.272
0.416869	501.92
0.419276	503.576
0.421697	505.172
0.424131	506.746
0.42658	508.327
0.429042	509.916
0.431519	511.511
0.43401	513.113
0.436516	514.722
0.439036	516.339
0.44157	517.962
0.44412	519.592
0.446684	521.229
0.449262	522.873
0.451856	524.524
0.454465	526.181
0.457088	527.846
0.459727	529.517
0.462381	531.194
0.46505	532.879
0.467735	534.57
0.470435	536.267
0.473151	537.972
0.475883	539.682
0.47863	541.399
0.481393	543.123
0.484172	544.852
0.486968	546.588
0.489779	548.331
0.492606	550.079
0.49545	551.834
0.49831	553.594
0.501187	555.361
0.504081	557.133
0.506991	558.911
0.509918	560.695
0.512861	562.484
0.515822	564.28
0.5188	566.08
0.521795	567.886
0.524807	569.697
0.527837	571.514
0.530884	573.336
0.533949	575.162
0.537032	576.994
0.540132	578.83
0.54325	580.671
0.546387	582.517
0.549541	584.367
0.552713	586.222
0.555904	588.08
0.559114	589.943
0.562341	591.791
0.565588	593.636
0.568853	595.484
0.572137	597.336
0.57544	599.192
0.578762	601.052
0.582103	602.915
0.585464	604.782
0.588844	606.652
0.592243	608.526
0.595662	610.404
0.599101	612.285
0.60256	614.17
0.606038	616.058
0.609537	617.95
