Stopping power dEdx from Ionisation for Ne20[0.0] Z = 10 in G4_TISSUE_SOFT_ICRP, process name: ionIoni
E [MeV]	dEdx [MeV/mm]
0.001	51.1662
0.00100577	51.3137
0.00101158	51.4616
0.00101742	51.6099
0.00102329	51.7586
0.0010292	51.9078
0.00103514	52.0575
0.00104112	52.2075
0.00104713	52.358
0.00105317	52.5089
0.00105925	52.6603
0.00106537	52.812
0.00107152	52.9643
0.00107771	53.1169
0.00108393	53.27
0.00109018	53.4236
0.00109648	53.5776
0.00110281	53.732
0.00110917	53.8869
0.00111558	54.0422
0.00112202	54.198
0.0011285	54.3542
0.00113501	54.5108
0.00114156	54.668
0.00114815	54.8255
0.00115478	54.9836
0.00116145	55.1421
0.00116815	55.301
0.0011749	55.4604
0.00118168	55.6203
0.0011885	55.7806
0.00119536	55.9413
0.00120226	56.1026
0.00120921	56.2643
0.00121619	56.4265
0.00122321	56.5891
0.00123027	56.7522
0.00123737	56.9158
0.00124451	57.0799
0.0012517	57.2444
0.00125893	57.4094
0.00126619	57.5749
0.0012735	57.7408
0.00128086	57.9072
0.00128825	58.0742
0.00129569	58.2416
0.00130317	58.4094
0.00131069	58.5778
0.00131826	58.7466
0.00132587	58.916
0.00133352	59.0858
0.00134122	59.2561
0.00134896	59.4269
0.00135675	59.5982
0.00136458	59.77
0.00137246	59.9422
0.00138038	60.115
0.00138835	60.2883
0.00139637	60.4621
0.00140443	60.6363
0.00141254	60.8111
0.00142069	60.9864
0.00142889	61.1622
0.00143714	61.3385
0.00144544	61.5153
0.00145378	61.6926
0.00146218	61.8704
0.00147062	62.0487
0.00147911	62.2276
0.00148765	62.4069
0.00149624	62.5868
0.00150487	62.7672
0.00151356	62.9481
0.0015223	63.1296
0.00153109	63.3115
0.00153993	63.494
0.00154882	63.6771
0.00155776	63.8606
0.00156675	64.0447
0.0015758	64.2293
0.00158489	64.4144
0.00159404	64.6001
0.00160325	64.7863
0.0016125	64.973
0.00162181	65.1603
0.00163117	65.3481
0.00164059	65.5365
0.00165006	65.7254
0.00165959	65.9148
0.00166917	66.1048
0.0016788	66.2953
0.0016885	66.4864
0.00169824	66.6781
0.00170805	66.8702
0.00171791	67.063
0.00172783	67.2563
0.0017378	67.4502
0.00174783	67.6446
0.00175792	67.8395
0.00176807	68.0351
0.00177828	68.2312
0.00178855	68.4279
0.00179887	68.6251
0.00180926	68.8229
0.0018197	69.0213
0.00183021	69.2202
0.00184077	69.4197
0.0018514	69.6198
0.00186209	69.8205
0.00187284	70.0217
0.00188365	70.2236
0.00189452	70.426
0.00190546	70.629
0.00191646	70.8326
0.00192752	71.0367
0.00193865	71.2415
0.00194984	71.4468
0.0019611	71.6528
0.00197242	71.8593
0.00198381	72.0664
0.00199526	72.2741
0.00200678	72.4825
0.00201837	72.6914
0.00203002	72.9009
0.00204174	73.111
0.00205353	73.3218
0.00206538	73.5331
0.0020773	73.7451
0.0020893	73.9576
0.00210136	74.1708
0.00211349	74.3846
0.00212569	74.599
0.00213796	74.814
0.0021503	75.0297
0.00216272	75.2459
0.0021752	75.4628
0.00218776	75.6803
0.00220039	75.8985
0.00221309	76.1172
0.00222587	76.3366
0.00223872	76.5567
0.00225165	76.7773
0.00226464	76.9986
0.00227772	77.2206
0.00229087	77.4431
0.00230409	77.6664
0.00231739	77.8902
0.00233077	78.1147
0.00234423	78.3399
0.00235776	78.5657
0.00237137	78.7921
0.00238506	79.0193
0.00239883	79.247
0.00241268	79.4754
0.00242661	79.7045
0.00244062	79.9343
0.00245471	80.1647
0.00246888	80.3957
0.00248313	80.6275
0.00249747	80.8599
0.00251189	81.0929
0.00252639	81.3267
0.00254097	81.5611
0.00255564	81.7962
0.0025704	82.0319
0.00258523	82.2684
0.00260016	82.5055
0.00261517	82.7433
0.00263027	82.9818
0.00264545	83.221
0.00266073	83.4609
0.00267609	83.7014
0.00269153	83.9427
0.00270707	84.1847
0.0027227	84.4273
0.00273842	84.6707
0.00275423	84.9147
0.00277013	85.1595
0.00278612	85.4049
0.00280221	85.6511
0.00281838	85.898
0.00283465	86.1456
0.00285102	86.3939
0.00286748	86.6429
0.00288403	86.8926
0.00290068	87.1431
0.00291743	87.3943
0.00293427	87.6462
0.00295121	87.8988
0.00296825	88.1522
0.00298538	88.4062
0.00300262	88.6611
0.00301995	88.9166
0.00303739	89.1729
0.00305492	89.4299
0.00307256	89.6877
0.0030903	89.9462
0.00310814	90.2055
0.00312608	90.4655
0.00314413	90.7262
0.00316228	90.9878
0.00318053	91.25
0.0031989	91.513
0.00321736	91.7768
0.00323594	92.0413
0.00325462	92.3066
0.00327341	92.5727
0.0032923	92.8395
0.00331131	93.1071
0.00333043	93.3755
0.00334965	93.6446
0.00336899	93.9146
0.00338844	94.1853
0.003408	94.4567
0.00342768	94.729
0.00344747	95.002
0.00346737	95.2759
0.00348739	95.5505
0.00350752	95.8259
0.00352777	96.1021
0.00354813	96.3791
0.00356862	96.6569
0.00358922	96.9355
0.00360994	97.2149
0.00363078	97.4951
0.00365174	97.7762
0.00367282	98.058
0.00369403	98.3406
0.00371535	98.6241
0.0037368	98.9083
0.00375837	99.1934
0.00378007	99.4794
0.00380189	99.7661
0.00382384	100.054
0.00384592	100.342
0.00386812	100.631
0.00389045	100.921
0.00391291	101.212
0.0039355	101.504
0.00395822	101.797
0.00398107	102.09
0.00400405	102.384
0.00402717	102.679
0.00405042	102.975
0.0040738	103.272
0.00409732	103.57
0.00412098	103.868
0.00414477	104.168
0.00416869	104.468
0.00419276	104.769
0.00421697	105.071
0.00424131	105.374
0.0042658	105.678
0.00429042	105.982
0.00431519	106.288
0.0043401	106.594
0.00436516	106.901
0.00439036	107.209
0.0044157	107.518
0.0044412	107.828
0.00446684	108.139
0.00449262	108.451
0.00451856	108.763
0.00454465	109.077
0.00457088	109.391
0.00459727	109.707
0.00462381	110.023
0.0046505	110.34
0.00467735	110.658
0.00470435	110.977
0.00473151	111.297
0.00475883	111.618
0.0047863	111.939
0.00481393	112.262
0.00484172	112.586
0.00486968	112.91
0.00489779	113.236
0.00492606	113.562
0.0049545	113.889
0.0049831	114.218
0.00501187	114.542
0.00504081	114.864
0.00506991	115.187
0.00509918	115.511
0.00512861	115.836
0.00515822	116.162
0.005188	116.489
0.00521795	116.817
0.00524807	117.146
0.00527837	117.475
0.00530884	117.806
0.00533949	118.137
0.00537032	118.47
0.00540132	118.803
0.0054325	119.138
0.00546387	119.473
0.00549541	119.81
0.00552713	120.147
0.00555904	120.485
0.00559114	120.825
0.00562341	121.165
0.00565588	121.506
0.00568853	121.848
0.00572137	122.192
0.0057544	122.536
0.00578762	122.881
0.00582103	123.227
0.00585464	123.574
0.00588844	123.923
0.00592243	124.272
0.00595662	124.622
0.00599101	124.973
0.0060256	125.325
0.00606038	125.679
0.00609537	126.033
0.00613056	126.388
0.00616595	126.744
0.00620155	127.102
0.00623735	127.46
0.00627336	127.82
0.00630957	128.18
0.006346	128.541
0.00638263	128.904
0.00641948	129.268
0.00645654	129.632
0.00649382	129.998
0.00653131	130.365
0.00656901	130.732
0.00660693	131.101
0.00664508	131.471
0.00668344	131.842
0.00672202	132.214
0.00676083	132.587
0.00679986	132.961
0.00683912	133.337
0.0068786	133.713
0.00691831	134.09
0.00695825	134.469
0.00699842	134.849
0.00703882	135.229
0.00707946	135.611
0.00712033	135.994
0.00716143	136.378
0.00720278	136.763
0.00724436	137.15
0.00728618	137.537
0.00732825	137.925
0.00737055	138.315
0.0074131	138.706
0.0074559	139.098
0.00749894	139.491
0.00754223	139.885
0.00758578	140.28
0.00762957	140.677
0.00767361	141.074
0.00771792	141.473
0.00776247	141.873
0.00780728	142.274
0.00785236	142.676
0.00789769	143.079
0.00794328	143.484
0.00798914	143.89
0.00803526	144.297
0.00808165	144.705
0.00812831	145.114
0.00817523	145.524
0.00822243	145.936
0.0082699	146.349
0.00831764	146.763
0.00836566	147.178
0.00841395	147.594
0.00846253	148.012
0.00851138	148.431
0.00856052	148.851
0.00860994	149.272
0.00865964	149.694
0.00870964	150.118
0.00875992	150.543
0.00881049	150.969
0.00886135	151.397
0.00891251	151.825
0.00896396	152.255
0.00901571	152.686
0.00906776	153.119
0.00912011	153.552
0.00917276	153.987
0.00922571	154.423
0.00927897	154.861
0.00933254	155.299
0.00938642	155.739
0.00944061	156.18
0.00949511	156.623
0.00954993	157.067
0.00960506	157.512
0.00966051	157.958
0.00971628	158.406
0.00977237	158.855
0.00982879	159.305
0.00988553	159.757
0.0099426	160.209
0.01	160.664
0.0100577	161.119
0.0101158	161.576
0.0101742	162.034
0.0102329	162.494
0.010292	162.954
0.0103514	163.417
0.0104112	163.88
0.0104713	164.345
0.0105317	164.811
0.0105925	165.279
0.0106537	165.747
0.0107152	166.218
0.0107771	166.689
0.0108393	167.162
0.0109018	167.637
0.0109648	168.113
0.0110281	168.59
0.0110917	169.068
0.0111558	169.548
0.0112202	170.029
0.011285	170.512
0.0113501	170.996
0.0114156	171.482
0.0114815	171.969
0.0115478	172.457
0.0116145	172.947
0.0116815	173.438
0.011749	173.931
0.0118168	174.425
0.011885	174.92
0.0119536	175.417
0.0120226	175.916
0.0120921	176.415
0.0121619	176.917
0.0122321	177.419
0.0123027	177.924
0.0123737	178.429
0.0124451	178.936
0.012517	179.445
0.0125893	179.955
0.0126619	180.467
0.012735	180.98
0.0128086	181.494
0.0128825	182.011
0.0129569	182.528
0.0130317	183.047
0.0131069	183.568
0.0131826	184.09
0.0132587	184.614
0.0133352	185.139
0.0134122	185.665
0.0134896	186.194
0.0135675	186.723
0.0136458	187.255
0.0137246	187.788
0.0138038	188.322
0.0138835	188.858
0.0139637	189.396
0.0140443	189.935
0.0141254	190.475
0.0142069	191.018
0.0142889	191.561
0.0143714	192.107
0.0144544	192.654
0.0145378	193.202
0.0146218	193.753
0.0147062	194.304
0.0147911	194.858
0.0148765	195.413
0.0149624	195.97
0.0150487	196.528
0.0151356	197.088
0.015223	197.649
0.0153109	198.212
0.0153993	198.777
0.0154882	199.344
0.0155776	199.912
0.0156675	200.482
0.015758	201.053
0.0158489	201.626
0.0159404	202.201
0.0160325	202.777
0.016125	203.356
0.0162181	203.935
0.0163117	204.517
0.0164059	205.1
0.0165006	205.685
0.0165959	206.272
0.0166917	206.86
0.016788	207.45
0.016885	208.042
0.0169824	208.636
0.0170805	209.231
0.0171791	209.828
0.0172783	210.427
0.017378	211.027
0.0174783	211.629
0.0175792	212.233
0.0176807	212.839
0.0177828	213.447
0.0178855	214.056
0.0179887	214.667
0.0180926	215.28
0.018197	215.895
0.0183021	216.511
0.0184077	217.129
0.018514	217.75
0.0186209	218.372
0.0187284	218.995
0.0188365	219.621
0.0189452	220.248
0.0190546	220.877
0.0191646	221.509
0.0192752	222.141
0.0193865	222.776
0.0194984	223.413
0.019611	224.051
0.0197242	224.692
0.0198381	225.334
0.0199526	225.978
0.0200678	226.276
0.0201837	226.426
0.0203002	226.579
0.0204174	226.733
0.0205353	226.888
0.0206538	227.045
0.020773	227.204
0.020893	227.364
0.0210136	227.526
0.0211349	227.689
0.0212569	227.854
0.0213796	228.02
0.021503	228.187
0.0216272	228.356
0.021752	228.526
0.0218776	228.698
0.0220039	228.871
0.0221309	229.045
0.0222587	229.221
0.0223872	229.397
0.0225165	229.575
0.0226464	229.755
0.0227772	229.935
0.0229087	230.117
0.0230409	230.3
0.0231739	230.485
0.0233077	230.67
0.0234423	230.857
0.0235776	231.044
0.0237137	231.233
0.0238506	231.423
0.0239883	231.615
0.0241268	231.807
0.0242661	232
0.0244062	232.195
0.0245471	232.39
0.0246888	232.587
0.0248313	232.784
0.0249747	232.983
0.0251189	233.183
0.0252639	233.383
0.0254097	233.585
0.0255564	233.788
0.025704	233.992
0.0258523	234.196
0.0260016	234.402
0.0261517	234.609
0.0263027	234.816
0.0264545	235.025
0.0266073	235.234
0.0267609	235.444
0.0269153	235.656
0.0270707	235.868
0.027227	236.081
0.0273842	236.295
0.0275423	236.51
0.0277013	236.726
0.0278612	236.942
0.0280221	237.16
0.0281838	237.378
0.0283465	237.598
0.0285102	237.818
0.0286748	238.039
0.0288403	238.26
0.0290068	238.483
0.0291743	238.707
0.0293427	238.931
0.0295121	239.156
0.0296825	239.382
0.0298538	239.609
0.0300262	239.836
0.0301995	240.065
0.0303739	240.294
0.0305492	240.524
0.0307256	240.755
0.030903	240.986
0.0310814	241.219
0.0312608	241.452
0.0314413	241.686
0.0316228	241.921
0.0318053	242.156
0.031989	242.393
0.0321736	242.63
0.0323594	242.868
0.0325462	243.106
0.0327341	243.346
0.032923	243.586
0.0331131	243.827
0.0333043	244.069
0.0334965	244.311
0.0336899	244.554
0.0338844	244.798
0.03408	245.043
0.0342768	245.289
0.0344747	245.535
0.0346737	245.782
0.0348739	246.03
0.0350752	246.279
0.0352777	246.528
0.0354813	246.778
0.0356862	247.029
0.0358922	247.281
0.0360994	247.534
0.0363078	247.787
0.0365174	248.041
0.0367282	248.296
0.0369403	248.551
0.0371535	248.808
0.037368	249.065
0.0375837	249.323
0.0378007	249.581
0.0380189	249.841
0.0382384	250.101
0.0384592	250.362
0.0386812	250.624
0.0389045	250.887
0.0391291	251.15
0.039355	251.414
0.0395822	251.679
0.0398107	251.945
0.0400405	252.212
0.0402717	252.479
0.0405042	252.747
0.040738	253.016
0.0409732	253.286
0.0412098	253.557
0.0414477	253.828
0.0416869	254.1
0.0419276	254.373
0.0421697	254.647
0.0424131	254.922
0.042658	255.198
0.0429042	255.474
0.0431519	255.751
0.043401	256.029
0.0436516	256.308
0.0439036	256.588
0.044157	256.869
0.044412	257.15
0.0446684	257.433
0.0449262	257.716
0.0451856	258
0.0454465	258.285
0.0457088	258.571
0.0459727	258.858
0.0462381	259.145
0.046505	259.434
0.0467735	259.723
0.0470435	260.014
0.0473151	260.305
0.0475883	260.597
0.047863	260.89
0.0481393	261.184
0.0484172	261.479
0.0486968	261.775
0.0489779	262.072
0.0492606	262.369
0.049545	262.668
0.049831	262.968
0.0501187	263.268
0.0504081	263.57
0.0506991	263.872
0.0509918	264.176
0.0512861	264.48
0.0515822	264.786
0.05188	265.092
0.0521795	265.4
0.0524807	265.708
0.0527837	266.018
0.0530884	266.328
0.0533949	266.64
0.0537032	266.952
0.0540132	267.266
0.054325	267.58
0.0546387	267.896
0.0549541	268.213
0.0552713	268.531
0.0555904	268.849
0.0559114	269.169
0.0562341	269.49
0.0565588	269.812
0.0568853	270.135
0.0572137	270.459
0.057544	270.785
0.0578762	271.111
0.0582103	271.439
0.0585464	271.767
0.0588844	272.097
0.0592243	272.428
0.0595662	272.76
0.0599101	273.093
0.060256	273.427
0.0606038	273.763
0.0609537	274.099
0.0613056	274.437
0.0616595	274.776
0.0620155	275.116
0.0623735	275.457
0.0627336	275.8
0.0630957	276.144
0.06346	276.488
0.0638263	276.835
0.0641948	277.182
0.0645654	277.531
0.0649382	277.88
0.0653131	278.231
0.0656901	278.584
0.0660693	278.937
0.0664508	279.292
0.0668344	279.648
0.0672202	280.005
0.0676083	280.364
0.0679986	280.724
0.0683912	281.085
0.068786	281.448
0.0691831	281.811
0.0695825	282.176
0.0699842	282.543
0.0703882	282.911
0.0707946	283.28
0.0712033	283.65
0.0716143	284.022
0.0720278	284.395
0.0724436	284.77
0.0728618	285.146
0.0732825	285.523
0.0737055	285.901
0.074131	286.281
0.074559	286.663
0.0749894	287.046
0.0754223	287.43
0.0758578	287.816
0.0762957	288.203
0.0767361	288.591
0.0771792	288.981
0.0776247	289.373
0.0780728	289.766
0.0785236	290.16
0.0789769	290.556
0.0794328	290.953
0.0798914	291.352
0.0803526	291.752
0.0808165	292.154
0.0812831	292.557
0.0817523	292.962
0.0822243	293.368
0.082699	293.776
0.0831764	294.185
0.0836566	294.596
0.0841395	295.009
0.0846253	295.423
0.0851138	295.838
0.0856052	296.255
0.0860994	296.674
0.0865964	297.094
0.0870964	297.516
0.0875992	297.94
0.0881049	298.365
0.0886135	298.792
0.0891251	299.22
0.0896396	299.65
0.0901571	300.081
0.0906776	300.515
0.0912011	300.95
0.0917276	301.386
0.0922571	301.824
0.0927897	302.264
0.0933254	302.706
0.0938642	303.149
0.0944061	303.594
0.0949511	304.041
0.0954993	304.489
0.0960506	304.939
0.0966051	305.391
0.0971628	305.844
0.0977237	306.299
0.0982879	306.756
0.0988553	307.215
0.099426	307.676
0.1	308.138
0.100577	308.602
0.101158	309.068
0.101742	309.535
0.102329	310.005
0.10292	310.476
0.103514	310.949
0.104112	311.424
0.104713	311.9
0.105317	312.379
0.105925	312.859
0.106537	313.341
0.107152	313.825
0.107771	314.311
0.108393	314.798
0.109018	315.288
0.109648	315.779
0.110281	316.273
0.110917	316.768
0.111558	317.265
0.112202	317.764
0.11285	318.265
0.113501	318.768
0.114156	319.273
0.114815	319.779
0.115478	320.288
0.116145	320.799
0.116815	321.311
0.11749	321.826
0.118168	322.342
0.11885	322.861
0.119536	323.381
0.120226	323.903
0.120921	324.428
0.121619	324.954
0.122321	325.483
0.123027	326.013
0.123737	326.546
0.124451	327.08
0.12517	327.617
0.125893	328.155
0.126619	328.696
0.12735	329.239
0.128086	329.783
0.128825	330.33
0.129569	330.879
0.130317	331.43
0.131069	331.983
0.131826	332.538
0.132587	333.096
0.133352	333.655
0.134122	334.217
0.134896	334.78
0.135675	335.346
0.136458	335.914
0.137246	336.484
0.138038	337.056
0.138835	337.63
0.139637	338.207
0.140443	338.786
0.141254	339.366
0.142069	339.949
0.142889	340.535
0.143714	341.122
0.144544	341.712
0.145378	342.304
0.146218	342.898
0.147062	343.494
0.147911	344.092
0.148765	344.693
0.149624	345.296
0.150487	345.901
0.151356	346.509
0.15223	347.119
0.153109	347.731
0.153993	348.345
0.154882	348.961
0.155776	349.58
0.156675	350.201
0.15758	350.825
0.158489	351.45
0.159404	352.078
0.160325	352.709
0.16125	353.341
0.162181	353.976
0.163117	354.614
0.164059	355.253
0.165006	355.895
0.165959	356.539
0.166917	357.186
0.16788	357.835
0.16885	358.486
0.169824	359.14
0.170805	359.796
0.171791	360.455
0.172783	361.116
0.17378	361.779
0.174783	362.445
0.175792	363.113
0.176807	363.783
0.177828	364.456
0.178855	365.132
0.179887	365.809
0.180926	366.489
0.18197	367.172
0.183021	367.857
0.184077	368.545
0.18514	369.234
0.186209	369.927
0.187284	370.622
0.188365	371.319
0.189452	372.019
0.190546	372.721
0.191646	373.426
0.192752	374.133
0.193865	374.843
0.194984	375.555
0.19611	376.269
0.197242	376.987
0.198381	377.706
0.199526	378.429
0.200678	379.153
0.201837	379.88
0.203002	380.61
0.204174	381.342
0.205353	382.077
0.206538	382.815
0.20773	383.554
0.20893	384.297
0.210136	385.042
0.211349	385.789
0.212569	386.539
0.213796	387.292
0.21503	388.047
0.216272	388.805
0.21752	389.565
0.218776	390.328
0.220039	391.094
0.221309	391.862
0.222587	392.632
0.223872	393.405
0.225165	394.181
0.226464	394.96
0.227772	395.74
0.229087	396.524
0.230409	397.31
0.231739	398.099
0.233077	398.89
0.234423	399.684
0.235776	400.481
0.237137	401.28
0.238506	402.082
0.239883	402.886
0.241268	403.693
0.242661	404.503
0.244062	405.315
0.245471	406.13
0.246888	406.948
0.248313	407.768
0.249747	408.59
0.251189	409.416
0.252639	410.244
0.254097	411.074
0.255564	411.908
0.25704	412.744
0.258523	413.582
0.260016	414.423
0.261517	415.267
0.263027	416.114
0.264545	416.963
0.266073	417.815
0.267609	418.669
0.269153	419.526
0.270707	420.386
0.27227	421.248
0.273842	422.113
0.275423	422.981
0.277013	423.851
0.278612	424.724
0.280221	425.599
0.281838	426.477
0.283465	427.358
0.285102	428.241
0.286748	429.127
0.288403	430.016
0.290068	430.907
0.291743	431.801
0.293427	432.698
0.295121	433.597
0.296825	434.499
0.298538	435.403
0.300262	436.31
0.301995	437.22
0.303739	438.132
0.305492	439.047
0.307256	439.965
0.30903	440.885
0.310814	441.808
0.312608	442.733
0.314413	443.661
0.316228	444.591
0.318053	445.524
0.31989	446.46
0.321736	447.398
0.323594	448.339
0.325462	449.283
0.327341	450.229
0.32923	451.177
0.331131	452.646
0.333043	454.345
0.334965	456.055
0.336899	457.775
0.338844	459.508
0.3408	461.251
0.342768	463.006
0.344747	464.772
0.346737	466.55
0.348739	468.34
0.350752	470.142
0.352777	471.955
0.354813	473.78
0.356862	475.618
0.358922	477.467
0.360994	479.329
0.363078	481.203
0.365174	483.09
0.367282	484.989
0.369403	486.9
0.371535	488.825
0.37368	490.762
0.375837	492.712
0.378007	494.676
0.380189	496.652
0.382384	498.642
0.384592	500.645
0.386812	502.661
0.389045	504.691
0.391291	506.735
0.39355	508.793
0.395822	510.864
0.398107	512.949
0.400405	515.049
0.402717	517.163
0.405042	519.291
0.40738	521.433
0.409732	523.59
0.412098	525.762
0.414477	527.949
0.416869	530.15
0.419276	532.367
0.421697	534.598
0.424131	536.845
0.42658	539.107
0.429042	541.385
0.431519	543.679
0.43401	545.988
0.436516	548.313
0.439036	550.655
0.44157	553.012
0.44412	555.386
0.446684	557.776
0.449262	560.182
0.451856	562.606
0.454465	565.046
0.457088	567.503
0.459727	569.977
0.462381	572.469
0.46505	574.977
0.467735	577.504
0.470435	580.048
0.473151	582.61
0.475883	585.189
0.47863	587.787
0.481393	590.403
0.484172	593.038
0.486968	595.691
0.489779	598.363
0.492606	601.053
0.49545	603.763
0.49831	606.492
0.501187	609.24
0.504081	611.738
0.506991	614.105
0.509918	616.484
0.512861	618.875
0.515822	621.278
0.5188	623.693
0.521795	626.12
0.524807	628.558
0.527837	631.009
0.530884	633.472
0.533949	635.947
0.537032	638.434
0.540132	640.933
0.54325	643.444
0.546387	645.967
0.549541	648.503
0.552713	651.051
0.555904	653.611
0.559114	656.183
0.562341	658.768
0.565588	661.365
0.568853	663.975
0.572137	666.597
0.57544	669.232
0.578762	671.878
0.582103	674.538
0.585464	677.21
0.588844	679.894
0.592243	682.591
0.595662	685.301
0.599101	688.023
0.60256	690.758
0.606038	693.506
0.609537	696.266
