Stopping power dEdx from Ionisation for O16[0.0] Z = 8 in G4_Si, process name: ionIoni
E [MeV]	dEdx [MeV/mm]
0.001	32.5125
0.00100577	32.6069
0.00101158	32.7017
0.00101742	32.7967
0.00102329	32.892
0.0010292	32.9876
0.00103514	33.0835
0.00104112	33.1796
0.00104713	33.276
0.00105317	33.3727
0.00105925	33.4697
0.00106537	33.5669
0.00107152	33.6645
0.00107771	33.7623
0.00108393	33.8604
0.00109018	33.9587
0.00109648	34.0574
0.00110281	34.1563
0.00110917	34.2555
0.00111558	34.3551
0.00112202	34.4549
0.0011285	34.5549
0.00113501	34.6553
0.00114156	34.756
0.00114815	34.8569
0.00115478	34.9582
0.00116145	35.0597
0.00116815	35.1616
0.0011749	35.2637
0.00118168	35.3661
0.0011885	35.4688
0.00119536	35.5718
0.00120226	35.6751
0.00120921	35.7787
0.00121619	35.8826
0.00122321	35.9868
0.00123027	36.0913
0.00123737	36.1961
0.00124451	36.3012
0.0012517	36.4066
0.00125893	36.5124
0.00126619	36.6184
0.0012735	36.7247
0.00128086	36.8313
0.00128825	36.9383
0.00129569	37.0455
0.00130317	37.1531
0.00131069	37.2609
0.00131826	37.3691
0.00132587	37.4776
0.00133352	37.5864
0.00134122	37.6955
0.00134896	37.8049
0.00135675	37.9147
0.00136458	38.0247
0.00137246	38.1351
0.00138038	38.2458
0.00138835	38.3568
0.00139637	38.4681
0.00140443	38.5798
0.00141254	38.6918
0.00142069	38.8041
0.00142889	38.9167
0.00143714	39.0296
0.00144544	39.1429
0.00145378	39.2565
0.00146218	39.3704
0.00147062	39.4847
0.00147911	39.5993
0.00148765	39.7142
0.00149624	39.8294
0.00150487	39.945
0.00151356	40.0609
0.0015223	40.1772
0.00153109	40.2937
0.00153993	40.4107
0.00154882	40.5279
0.00155776	40.6455
0.00156675	40.7634
0.0015758	40.8817
0.00158489	41.0003
0.00159404	41.1193
0.00160325	41.2386
0.0016125	41.3582
0.00162181	41.4782
0.00163117	41.5985
0.00164059	41.7192
0.00165006	41.8402
0.00165959	41.9616
0.00166917	42.0833
0.0016788	42.2054
0.0016885	42.3278
0.00169824	42.4506
0.00170805	42.5737
0.00171791	42.6972
0.00172783	42.8211
0.0017378	42.9453
0.00174783	43.0698
0.00175792	43.1947
0.00176807	43.32
0.00177828	43.4457
0.00178855	43.5717
0.00179887	43.698
0.00180926	43.8248
0.0018197	43.9518
0.00183021	44.0793
0.00184077	44.2071
0.0018514	44.3353
0.00186209	44.4639
0.00187284	44.5928
0.00188365	44.7221
0.00189452	44.8518
0.00190546	44.9819
0.00191646	45.1123
0.00192752	45.2431
0.00193865	45.3743
0.00194984	45.5059
0.0019611	45.6378
0.00197242	45.7701
0.00198381	45.9028
0.00199526	46.0359
0.00200678	46.1694
0.00201837	46.3032
0.00203002	46.4375
0.00204174	46.5721
0.00205353	46.7071
0.00206538	46.8425
0.0020773	46.9783
0.0020893	47.1145
0.00210136	47.251
0.00211349	47.388
0.00212569	47.5254
0.00213796	47.6631
0.0021503	47.8013
0.00216272	47.9399
0.0021752	48.0788
0.00218776	48.2182
0.00220039	48.3579
0.00221309	48.4981
0.00222587	48.6386
0.00223872	48.7796
0.00225165	48.921
0.00226464	49.0628
0.00227772	49.205
0.00229087	49.3476
0.00230409	49.4906
0.00231739	49.634
0.00233077	49.7778
0.00234423	49.9221
0.00235776	50.0668
0.00237137	50.2118
0.00238506	50.3574
0.00239883	50.5033
0.00241268	50.6496
0.00242661	50.7964
0.00244062	50.9436
0.00245471	51.0912
0.00246888	51.2392
0.00248313	51.3877
0.00249747	51.5366
0.00251189	51.6859
0.00252639	51.8357
0.00254097	51.9858
0.00255564	52.1365
0.0025704	52.2875
0.00258523	52.439
0.00260016	52.5909
0.00261517	52.7433
0.00263027	52.8961
0.00264545	53.0493
0.00266073	53.203
0.00267609	53.3571
0.00269153	53.5117
0.00270707	53.6667
0.0027227	53.8222
0.00273842	53.9781
0.00275423	54.1344
0.00277013	54.2913
0.00278612	54.4485
0.00280221	54.6062
0.00281838	54.7644
0.00283465	54.923
0.00285102	55.0821
0.00286748	55.2417
0.00288403	55.4017
0.00290068	55.5621
0.00291743	55.723
0.00293427	55.8844
0.00295121	56.0463
0.00296825	56.2086
0.00298538	56.3714
0.00300262	56.5347
0.00301995	56.6984
0.00303739	56.8626
0.00305492	57.0273
0.00307256	57.1924
0.0030903	57.358
0.00310814	57.5241
0.00312608	57.6907
0.00314413	57.8578
0.00316228	58.0253
0.00318053	58.1933
0.0031989	58.3619
0.00321736	58.5308
0.00323594	58.7003
0.00325462	58.8703
0.00327341	59.0408
0.0032923	59.2117
0.00331131	59.3832
0.00333043	59.5551
0.00334965	59.7275
0.00336899	59.9005
0.00338844	60.0739
0.003408	60.2478
0.00342768	60.4223
0.00344747	60.5972
0.00346737	60.7726
0.00348739	60.9486
0.00350752	61.125
0.00352777	61.302
0.00354813	61.4795
0.00356862	61.6574
0.00358922	61.8359
0.00360994	62.0149
0.00363078	62.1945
0.00365174	62.3745
0.00367282	62.5551
0.00369403	62.7361
0.00371535	62.9178
0.0037368	63.0999
0.00375837	63.2825
0.00378007	63.4657
0.00380189	63.6494
0.00382384	63.8337
0.00384592	64.0184
0.00386812	64.2037
0.00389045	64.3896
0.00391291	64.5759
0.0039355	64.7628
0.00395822	64.9503
0.00398107	65.1383
0.00400405	65.3268
0.00402717	65.5159
0.00405042	65.7055
0.0040738	65.8956
0.00409732	66.0863
0.00412098	66.2776
0.00414477	66.4694
0.00416869	66.6618
0.00419276	66.8547
0.00421697	67.0482
0.00424131	67.2422
0.0042658	67.4368
0.00429042	67.632
0.00431519	67.8277
0.0043401	68.0239
0.00436516	68.2208
0.00439036	68.4182
0.0044157	68.6162
0.0044412	68.8147
0.00446684	69.0139
0.00449262	69.2136
0.00451856	69.4138
0.00454465	69.6147
0.00457088	69.8161
0.00459727	70.0181
0.00462381	70.2207
0.0046505	70.4239
0.00467735	70.6277
0.00470435	70.832
0.00473151	71.0369
0.00475883	71.2425
0.0047863	71.4486
0.00481393	71.6553
0.00484172	71.8626
0.00486968	72.0705
0.00489779	72.279
0.00492606	72.4882
0.0049545	72.6979
0.0049831	72.9082
0.00501187	73.1191
0.00504081	73.3306
0.00506991	73.5428
0.00509918	73.7555
0.00512861	73.9689
0.00515822	74.1829
0.005188	74.3975
0.00521795	74.6127
0.00524807	74.8285
0.00527837	75.045
0.00530884	75.2621
0.00533949	75.4798
0.00537032	75.6981
0.00540132	75.9171
0.0054325	76.1367
0.00546387	76.3569
0.00549541	76.5778
0.00552713	76.7993
0.00555904	77.0214
0.00559114	77.2442
0.00562341	77.4676
0.00565588	77.6917
0.00568853	77.9164
0.00572137	78.1417
0.0057544	78.3678
0.00578762	78.5944
0.00582103	78.8217
0.00585464	79.0497
0.00588844	79.2783
0.00592243	79.5076
0.00595662	79.7375
0.00599101	79.9682
0.0060256	80.1994
0.00606038	80.4314
0.00609537	80.664
0.00613056	80.8973
0.00616595	81.1312
0.00620155	81.3658
0.00623735	81.6011
0.00627336	81.8371
0.00630957	82.0738
0.006346	82.3111
0.00638263	82.5491
0.00641948	82.7878
0.00645654	83.0273
0.00649382	83.2673
0.00653131	83.5081
0.00656901	83.7496
0.00660693	83.9918
0.00664508	84.2346
0.00668344	84.4782
0.00672202	84.7225
0.00676083	84.9675
0.00679986	85.2131
0.00683912	85.4595
0.0068786	85.7066
0.00691831	85.9544
0.00695825	86.203
0.00699842	86.4522
0.00703882	86.7022
0.00707946	86.9529
0.00712033	87.2043
0.00716143	87.4564
0.00720278	87.7093
0.00724436	87.9628
0.00728618	88.2172
0.00732825	88.4722
0.00737055	88.728
0.0074131	88.9845
0.0074559	89.2418
0.00749894	89.4998
0.00754223	89.7585
0.00758578	90.018
0.00762957	90.2783
0.00767361	90.5392
0.00771792	90.801
0.00776247	91.0635
0.00780728	91.3267
0.00785236	91.5908
0.00789769	91.8555
0.00794328	92.1211
0.00798914	92.3874
0.00803526	92.6544
0.00808165	92.9223
0.00812831	93.1909
0.00817523	93.4603
0.00822243	93.7304
0.0082699	94.0014
0.00831764	94.2731
0.00836566	94.5456
0.00841395	94.8189
0.00846253	95.093
0.00851138	95.3678
0.00856052	95.6435
0.00860994	95.92
0.00865964	96.1972
0.00870964	96.4753
0.00875992	96.7541
0.00881049	97.0338
0.00886135	97.3142
0.00891251	97.5955
0.00896396	97.8776
0.00901571	98.1605
0.00906776	98.4442
0.00912011	98.7287
0.00917276	99.0141
0.00922571	99.3002
0.00927897	99.5872
0.00933254	99.875
0.00938642	100.164
0.00944061	100.453
0.00949511	100.744
0.00954993	101.035
0.00960506	101.327
0.00966051	101.619
0.00971628	101.913
0.00977237	102.208
0.00982879	102.503
0.00988553	102.799
0.0099426	103.096
0.01	103.394
0.0100577	103.693
0.0101158	103.993
0.0101742	104.293
0.0102329	104.595
0.010292	104.897
0.0103514	105.2
0.0104112	105.504
0.0104713	105.809
0.0105317	106.115
0.0105925	106.421
0.0106537	106.729
0.0107152	107.037
0.0107771	107.615
0.0108393	107.925
0.0109018	108.236
0.0109648	108.548
0.0110281	108.861
0.0110917	109.175
0.0111558	109.49
0.0112202	109.805
0.011285	110.122
0.0113501	110.439
0.0114156	110.758
0.0114815	111.077
0.0115478	111.397
0.0116145	111.718
0.0116815	112.04
0.011749	112.363
0.0118168	112.687
0.011885	113.012
0.0119536	113.337
0.0120226	113.664
0.0120921	113.992
0.0121619	114.32
0.0122321	114.65
0.0123027	114.98
0.0123737	115.312
0.0124451	115.644
0.012517	115.977
0.0125893	116.312
0.0126619	116.647
0.012735	116.983
0.0128086	117.32
0.0128825	117.659
0.0129569	117.998
0.0130317	118.338
0.0131069	118.679
0.0131826	119.021
0.0132587	119.364
0.0133352	119.708
0.0134122	120.053
0.0134896	120.399
0.0135675	120.746
0.0136458	121.094
0.0137246	121.443
0.0138038	121.793
0.0138835	122.144
0.0139637	122.496
0.0140443	122.85
0.0141254	123.204
0.0142069	123.559
0.0142889	123.915
0.0143714	124.272
0.0144544	124.63
0.0145378	124.99
0.0146218	125.35
0.0147062	125.711
0.0147911	126.073
0.0148765	126.437
0.0149624	126.801
0.0150487	127.167
0.0151356	127.533
0.015223	127.901
0.0153109	128.27
0.0153993	128.639
0.0154882	129.01
0.0155776	129.382
0.0156675	129.755
0.015758	130.129
0.0158489	130.504
0.0159404	130.88
0.0160325	131.257
0.016125	131.636
0.0162181	132.015
0.0163117	132.396
0.0164059	132.777
0.0165006	133.16
0.0165959	133.544
0.0166917	133.929
0.016788	134.315
0.016885	134.702
0.0169824	135.09
0.0170805	135.48
0.0171791	135.87
0.0172783	136.262
0.017378	136.654
0.0174783	137.048
0.0175792	137.443
0.0176807	137.839
0.0177828	138.237
0.0178855	138.635
0.0179887	139.035
0.0180926	139.436
0.018197	139.837
0.0183021	140.241
0.0184077	140.645
0.018514	141.05
0.0186209	141.457
0.0187284	141.864
0.0188365	142.273
0.0189452	142.683
0.0190546	143.095
0.0191646	143.507
0.0192752	143.921
0.0193865	144.336
0.0194984	144.752
0.019611	145.169
0.0197242	145.587
0.0198381	146.007
0.0199526	146.428
0.0200678	146.85
0.0201837	147.273
0.0203002	147.698
0.0204174	148.123
0.0205353	148.55
0.0206538	148.979
0.020773	149.408
0.020893	149.839
0.0210136	150.27
0.0211349	150.704
0.0212569	151.138
0.0213796	151.574
0.021503	152.011
0.0216272	152.449
0.021752	152.888
0.0218776	153.329
0.0220039	153.771
0.0221309	154.214
0.0222587	154.658
0.0223872	155.104
0.0225165	155.551
0.0226464	156
0.0227772	156.449
0.0229087	156.9
0.0230409	157.352
0.0231739	157.806
0.0233077	158.261
0.0234423	158.717
0.0235776	159.175
0.0237137	159.633
0.0238506	160.093
0.0239883	160.555
0.0241268	161.018
0.0242661	161.482
0.0244062	161.947
0.0245471	162.414
0.0246888	162.882
0.0248313	163.352
0.0249747	163.823
0.0251189	164.295
0.0252639	164.768
0.0254097	165.243
0.0255564	165.72
0.025704	166.197
0.0258523	166.676
0.0260016	167.157
0.0261517	167.638
0.0263027	168.122
0.0264545	168.606
0.0266073	169.092
0.0267609	169.58
0.0269153	170.068
0.0270707	170.559
0.027227	171.05
0.0273842	171.543
0.0275423	172.038
0.0277013	172.534
0.0278612	173.031
0.0280221	173.53
0.0281838	174.03
0.0283465	174.531
0.0285102	175.034
0.0286748	175.539
0.0288403	176.045
0.0290068	176.552
0.0291743	177.061
0.0293427	177.572
0.0295121	178.083
0.0296825	178.597
0.0298538	179.112
0.0300262	179.628
0.0301995	180.146
0.0303739	180.665
0.0305492	181.186
0.0307256	181.708
0.030903	182.232
0.0310814	182.757
0.0312608	183.284
0.0314413	183.812
0.0316228	184.342
0.0318053	184.873
0.031989	185.406
0.0321736	185.94
0.0323594	186.476
0.0325462	187.014
0.0327341	187.553
0.032923	188.093
0.0331131	188.636
0.0333043	189.179
0.0334965	189.725
0.0336899	190.271
0.0338844	190.82
0.03408	191.37
0.0342768	191.921
0.0344747	192.475
0.0346737	193.029
0.0348739	193.586
0.0350752	194.144
0.0352777	194.703
0.0354813	195.265
0.0356862	195.827
0.0358922	196.392
0.0360994	196.958
0.0363078	197.526
0.0365174	198.095
0.0367282	198.666
0.0369403	199.239
0.0371535	199.813
0.037368	200.389
0.0375837	200.966
0.0378007	201.546
0.0380189	202.127
0.0382384	202.709
0.0384592	203.294
0.0386812	203.88
0.0389045	204.467
0.0391291	205.057
0.039355	205.648
0.0395822	206.24
0.0398107	206.835
0.0400405	207.431
0.0402717	208.029
0.0405042	208.628
0.040738	209.23
0.0409732	209.833
0.0412098	210.438
0.0414477	211.044
0.0416869	211.653
0.0419276	212.263
0.0421697	212.874
0.0424131	213.488
0.042658	214.103
0.0429042	214.721
0.0431519	215.339
0.043401	215.96
0.0436516	216.583
0.0439036	217.207
0.044157	217.833
0.044412	218.461
0.0446684	219.091
0.0449262	219.722
0.0451856	220.355
0.0454465	220.991
0.0457088	221.627
0.0459727	222.266
0.0462381	222.907
0.046505	223.549
0.0467735	224.194
0.0470435	224.84
0.0473151	225.488
0.0475883	226.138
0.047863	226.79
0.0481393	227.444
0.0484172	228.099
0.0486968	228.757
0.0489779	229.416
0.0492606	230.077
0.049545	230.74
0.049831	231.405
0.0501187	232.072
0.0504081	232.741
0.0506991	233.412
0.0509918	234.085
0.0512861	234.76
0.0515822	235.436
0.05188	236.115
0.0521795	236.796
0.0524807	237.478
0.0527837	238.163
0.0530884	238.849
0.0533949	239.538
0.0537032	240.228
0.0540132	240.92
0.054325	241.615
0.0546387	242.311
0.0549541	243.01
0.0552713	243.71
0.0555904	244.413
0.0559114	245.117
0.0562341	245.824
0.0565588	246.532
0.0568853	247.243
0.0572137	247.955
0.057544	248.67
0.0578762	249.387
0.0582103	250.106
0.0585464	250.827
0.0588844	251.55
0.0592243	252.275
0.0595662	253.002
0.0599101	253.731
0.060256	254.462
0.0606038	255.196
0.0609537	255.931
0.0613056	256.669
0.0616595	257.409
0.0620155	258.151
0.0623735	258.895
0.0627336	259.641
0.0630957	260.39
0.06346	261.14
0.0638263	261.893
0.0641948	262.648
0.0645654	263.405
0.0649382	264.164
0.0653131	264.925
0.0656901	265.689
0.0660693	266.455
0.0664508	267.223
0.0668344	267.993
0.0672202	268.766
0.0676083	269.54
0.0679986	270.317
0.0683912	271.096
0.068786	271.878
0.0691831	272.661
0.0695825	273.447
0.0699842	274.235
0.0703882	275.026
0.0707946	275.819
0.0712033	276.614
0.0716143	277.411
0.0720278	278.211
0.0724436	279.012
0.0728618	279.817
0.0732825	280.623
0.0737055	281.432
0.074131	282.243
0.074559	283.057
0.0749894	283.873
0.0754223	284.691
0.0758578	285.512
0.0762957	286.334
0.0767361	287.16
0.0771792	287.987
0.0776247	288.818
0.0780728	289.65
0.0785236	290.485
0.0789769	291.322
0.0794328	292.162
0.0798914	293.004
0.0803526	293.849
0.0808165	294.696
0.0812831	295.545
0.0817523	296.397
0.0822243	297.251
0.082699	298.108
0.0831764	298.967
0.0836566	299.829
0.0841395	300.693
0.0846253	301.56
0.0851138	302.429
0.0856052	303.301
0.0860994	304.175
0.0865964	305.052
0.0870964	305.931
0.0875992	306.813
0.0881049	307.697
0.0886135	308.584
0.0891251	309.474
0.0896396	310.366
0.0901571	311.26
0.0906776	312.157
0.0912011	313.057
0.0917276	313.959
0.0922571	314.864
0.0927897	315.772
0.0933254	316.682
0.0938642	317.595
0.0944061	318.51
0.0949511	319.428
0.0954993	320.349
0.0960506	321.273
0.0966051	322.199
0.0971628	323.127
0.0977237	324.059
0.0982879	324.993
0.0988553	325.929
0.099426	326.869
0.1	327.811
0.100577	328.756
0.101158	329.704
0.101742	330.654
0.102329	331.607
0.10292	332.563
0.103514	333.521
0.104112	334.483
0.104713	335.447
0.105317	336.414
0.105925	337.383
0.106537	338.356
0.107152	339.331
0.107771	340.309
0.108393	341.29
0.109018	342.274
0.109648	343.26
0.110281	344.25
0.110917	345.242
0.111558	346.237
0.112202	347.235
0.11285	348.236
0.113501	349.24
0.114156	350.246
0.114815	351.256
0.115478	352.268
0.116145	353.284
0.116815	354.302
0.11749	355.323
0.118168	356.347
0.11885	357.375
0.119536	358.405
0.120226	359.438
0.120921	360.474
0.121619	361.513
0.122321	362.555
0.123027	363.6
0.123737	364.648
0.124451	365.699
0.12517	366.753
0.125893	367.81
0.126619	368.87
0.12735	369.933
0.128086	371
0.128825	372.069
0.129569	373.142
0.130317	374.217
0.131069	375.296
0.131826	376.377
0.132587	377.462
0.133352	378.55
0.134122	379.641
0.134896	380.736
0.135675	381.833
0.136458	382.934
0.137246	384.037
0.138038	385.144
0.138835	386.255
0.139637	387.368
0.140443	388.484
0.141254	389.604
0.142069	390.727
0.142889	391.853
0.143714	392.983
0.144544	394.116
0.145378	395.252
0.146218	396.391
0.147062	397.533
0.147911	398.679
0.148765	399.828
0.149624	400.981
0.150487	402.137
0.151356	403.296
0.15223	404.458
0.153109	405.624
0.153993	406.793
0.154882	407.966
0.155776	409.142
0.156675	410.321
0.15758	411.504
0.158489	412.69
0.159404	413.879
0.160325	415.072
0.16125	416.269
0.162181	417.468
0.163117	418.672
0.164059	419.878
0.165006	421.089
0.165959	422.302
0.166917	423.52
0.16788	424.74
0.16885	425.965
0.169824	427.193
0.170805	428.424
0.171791	429.659
0.172783	430.897
0.17378	432.139
0.174783	433.385
0.175792	434.634
0.176807	435.887
0.177828	437.143
0.178855	438.403
0.179887	439.667
0.180926	440.934
0.18197	442.205
0.183021	443.48
0.184077	444.758
0.18514	446.04
0.186209	447.325
0.187284	448.615
0.188365	449.908
0.189452	451.205
0.190546	452.505
0.191646	453.81
0.192752	455.118
0.193865	456.429
0.194984	457.745
0.19611	459.064
0.197242	460.388
0.198381	461.715
0.199526	463.045
0.200678	464.38
0.201837	465.719
0.203002	467.061
0.204174	468.407
0.205353	469.757
0.206538	471.111
0.20773	472.469
0.20893	473.831
0.210136	475.197
0.211349	476.567
0.212569	477.94
0.213796	479.318
0.21503	480.699
0.216272	482.085
0.21752	483.475
0.218776	484.868
0.220039	486.266
0.221309	487.667
0.222587	489.073
0.223872	490.483
0.225165	491.896
0.226464	493.314
0.227772	494.736
0.229087	496.162
0.230409	497.592
0.231739	499.027
0.233077	500.465
0.234423	501.907
0.235776	503.354
0.237137	504.805
0.238506	506.26
0.239883	507.719
0.241268	509.183
0.242661	510.65
0.244062	512.122
0.245471	513.598
0.246888	515.079
0.248313	516.563
0.249747	518.052
0.251189	519.546
0.252639	521.043
0.254097	522.545
0.255564	524.051
0.25704	525.562
0.258523	527.076
0.260016	528.596
0.261517	530.119
0.263027	531.647
0.264545	533.18
0.266073	534.717
0.267609	536.258
0.269153	537.804
0.270707	539.354
0.27227	540.908
0.273842	542.467
0.275423	544.031
0.277013	545.599
0.278612	547.172
0.280221	548.749
0.281838	550.331
0.283465	551.917
0.285102	553.508
0.286748	555.103
0.288403	556.703
0.290068	558.308
0.291743	559.917
0.293427	561.531
0.295121	563.149
0.296825	564.773
0.298538	566.4
0.300262	568.033
0.301995	569.67
0.303739	571.312
0.305492	572.959
0.307256	574.611
0.30903	576.267
0.310814	577.928
0.312608	579.594
0.314413	581.264
0.316228	582.94
0.318053	584.62
0.31989	586.305
0.321736	587.995
0.323594	589.69
0.325462	591.39
0.327341	593.094
0.32923	594.804
0.331131	596.518
0.333043	598.237
0.334965	599.962
0.336899	601.691
0.338844	603.425
0.3408	605.165
0.342768	606.909
0.344747	608.658
0.346737	610.413
0.348739	612.172
0.350752	613.937
0.352777	615.706
0.354813	617.481
0.356862	619.261
0.358922	621.046
0.360994	622.836
0.363078	624.631
0.365174	626.432
0.367282	628.237
0.369403	630.048
0.371535	631.864
0.37368	633.685
0.375837	635.512
0.378007	637.344
0.380189	639.181
0.382384	641.023
0.384592	642.871
0.386812	644.724
0.389045	646.582
0.391291	648.446
0.39355	650.315
0.395822	652.189
0.398107	654.069
0.400405	656.004
0.402717	658.182
0.405042	660.372
0.40738	662.575
0.409732	664.791
0.412098	667.019
0.414477	669.26
0.416869	671.515
0.419276	673.782
0.421697	676.062
0.424131	678.355
0.42658	680.661
0.429042	682.98
0.431519	685.313
0.43401	687.658
0.436516	690.017
0.439036	692.389
0.44157	694.774
0.44412	697.173
0.446684	699.585
0.449262	702.01
0.451856	704.449
0.454465	706.901
0.457088	709.367
0.459727	711.846
0.462381	714.338
0.46505	716.845
0.467735	719.364
0.470435	721.898
0.473151	724.445
0.475883	727.005
0.47863	729.58
0.481393	732.131
0.484172	734.66
0.486968	737.202
0.489779	739.757
0.492606	742.325
0.49545	744.907
0.49831	747.503
0.501187	750.111
0.504081	752.733
0.506991	755.368
0.509918	758.017
0.512861	760.679
0.515822	763.354
0.5188	766.043
0.521795	768.745
0.524807	771.46
0.527837	774.188
0.530884	776.93
0.533949	779.685
0.537032	782.454
0.540132	785.235
0.54325	788.03
0.546387	790.838
0.549541	793.659
0.552713	796.493
0.555904	799.34
0.559114	802.201
0.562341	805.074
0.565588	807.96
0.568853	810.859
0.572137	813.771
0.57544	816.696
0.578762	819.634
0.582103	822.584
0.585464	825.547
0.588844	828.523
0.592243	831.511
0.595662	834.511
0.599101	837.524
0.60256	840.549
0.606038	843.587
0.609537	846.636
0.613056	849.698
