Stopping power dEdx from Ionisation for O16[0.0] Z = 8 in G4_TISSUE_SOFT_ICRP, process name: ionIoni
E [MeV]	dEdx [MeV/mm]
0.001	46.3649
0.00100577	46.4986
0.00101158	46.6326
0.00101742	46.767
0.00102329	46.9018
0.0010292	47.037
0.00103514	47.1726
0.00104112	47.3086
0.00104713	47.4449
0.00105317	47.5817
0.00105925	47.7188
0.00106537	47.8564
0.00107152	47.9943
0.00107771	48.1326
0.00108393	48.2714
0.00109018	48.4105
0.00109648	48.55
0.00110281	48.69
0.00110917	48.8303
0.00111558	48.9711
0.00112202	49.1122
0.0011285	49.2538
0.00113501	49.3958
0.00114156	49.5381
0.00114815	49.6809
0.00115478	49.8241
0.00116145	49.9677
0.00116815	50.1118
0.0011749	50.2562
0.00118168	50.4011
0.0011885	50.5463
0.00119536	50.692
0.00120226	50.8381
0.00120921	50.9847
0.00121619	51.1316
0.00122321	51.279
0.00123027	51.4268
0.00123737	51.575
0.00124451	51.7237
0.0012517	51.8728
0.00125893	52.0223
0.00126619	52.1723
0.0012735	52.3226
0.00128086	52.4735
0.00128825	52.6247
0.00129569	52.7764
0.00130317	52.9285
0.00131069	53.0811
0.00131826	53.2341
0.00132587	53.3875
0.00133352	53.5414
0.00134122	53.6957
0.00134896	53.8505
0.00135675	54.0057
0.00136458	54.1614
0.00137246	54.3175
0.00138038	54.474
0.00138835	54.6311
0.00139637	54.7885
0.00140443	54.9465
0.00141254	55.1048
0.00142069	55.2637
0.00142889	55.423
0.00143714	55.5827
0.00144544	55.7429
0.00145378	55.9036
0.00146218	56.0647
0.00147062	56.2263
0.00147911	56.3884
0.00148765	56.5509
0.00149624	56.7139
0.00150487	56.8774
0.00151356	57.0413
0.0015223	57.2057
0.00153109	57.3706
0.00153993	57.536
0.00154882	57.7018
0.00155776	57.8682
0.00156675	58.035
0.0015758	58.2022
0.00158489	58.37
0.00159404	58.5382
0.00160325	58.707
0.0016125	58.8762
0.00162181	59.0459
0.00163117	59.2161
0.00164059	59.3868
0.00165006	59.5579
0.00165959	59.7296
0.00166917	59.9018
0.0016788	60.0744
0.0016885	60.2476
0.00169824	60.4212
0.00170805	60.5954
0.00171791	60.7701
0.00172783	60.9452
0.0017378	61.1209
0.00174783	61.2971
0.00175792	61.4737
0.00176807	61.6509
0.00177828	61.8286
0.00178855	62.0068
0.00179887	62.1856
0.00180926	62.3648
0.0018197	62.5446
0.00183021	62.7249
0.00184077	62.9056
0.0018514	63.087
0.00186209	63.2688
0.00187284	63.4512
0.00188365	63.6341
0.00189452	63.8175
0.00190546	64.0014
0.00191646	64.1859
0.00192752	64.3709
0.00193865	64.5565
0.00194984	64.7425
0.0019611	64.9291
0.00197242	65.1163
0.00198381	65.304
0.00199526	65.4922
0.00200678	65.681
0.00201837	65.8703
0.00203002	66.0602
0.00204174	66.2506
0.00205353	66.4415
0.00206538	66.633
0.0020773	66.8251
0.0020893	67.0177
0.00210136	67.2109
0.00211349	67.4046
0.00212569	67.5989
0.00213796	67.7937
0.0021503	67.9892
0.00216272	68.1851
0.0021752	68.3817
0.00218776	68.5788
0.00220039	68.7764
0.00221309	68.9747
0.00222587	69.1735
0.00223872	69.3729
0.00225165	69.5728
0.00226464	69.7734
0.00227772	69.9745
0.00229087	70.1762
0.00230409	70.3784
0.00231739	70.5813
0.00233077	70.7847
0.00234423	70.9888
0.00235776	71.1934
0.00237137	71.3986
0.00238506	71.6044
0.00239883	71.8108
0.00241268	72.0178
0.00242661	72.2253
0.00244062	72.4335
0.00245471	72.6423
0.00246888	72.8517
0.00248313	73.0617
0.00249747	73.2723
0.00251189	73.4835
0.00252639	73.6953
0.00254097	73.9077
0.00255564	74.1207
0.0025704	74.3344
0.00258523	74.5486
0.00260016	74.7635
0.00261517	74.979
0.00263027	75.1951
0.00264545	75.4119
0.00266073	75.6292
0.00267609	75.8472
0.00269153	76.0658
0.00270707	76.2851
0.0027227	76.505
0.00273842	76.7255
0.00275423	76.9466
0.00277013	77.1684
0.00278612	77.3909
0.00280221	77.6139
0.00281838	77.8376
0.00283465	78.062
0.00285102	78.287
0.00286748	78.5127
0.00288403	78.739
0.00290068	78.9659
0.00291743	79.1935
0.00293427	79.4218
0.00295121	79.6507
0.00296825	79.8803
0.00298538	80.1105
0.00300262	80.3414
0.00301995	80.573
0.00303739	80.8053
0.00305492	81.0382
0.00307256	81.2718
0.0030903	81.506
0.00310814	81.7409
0.00312608	81.9766
0.00314413	82.2128
0.00316228	82.4498
0.00318053	82.6875
0.0031989	82.9258
0.00321736	83.1648
0.00323594	83.4045
0.00325462	83.6449
0.00327341	83.886
0.0032923	84.1278
0.00331131	84.3703
0.00333043	84.6135
0.00334965	84.8574
0.00336899	85.102
0.00338844	85.3473
0.003408	85.5933
0.00342768	85.84
0.00344747	86.0874
0.00346737	86.3355
0.00348739	86.5844
0.00350752	86.834
0.00352777	87.0843
0.00354813	87.3353
0.00356862	87.587
0.00358922	87.8395
0.00360994	88.0926
0.00363078	88.3466
0.00365174	88.6012
0.00367282	88.8566
0.00369403	89.1127
0.00371535	89.3696
0.0037368	89.6272
0.00375837	89.8855
0.00378007	90.1446
0.00380189	90.4044
0.00382384	90.665
0.00384592	90.9263
0.00386812	91.1884
0.00389045	91.4512
0.00391291	91.7148
0.0039355	91.9792
0.00395822	92.2443
0.00398107	92.5102
0.00400405	92.7746
0.00402717	93.0356
0.00405042	93.2973
0.0040738	93.5597
0.00409732	93.8229
0.00412098	94.0869
0.00414477	94.3516
0.00416869	94.6171
0.00419276	94.8833
0.00421697	95.1503
0.00424131	95.4181
0.0042658	95.6867
0.00429042	95.956
0.00431519	96.2261
0.0043401	96.497
0.00436516	96.7687
0.00439036	97.0411
0.0044157	97.3143
0.0044412	97.5883
0.00446684	97.8631
0.00449262	98.1387
0.00451856	98.4151
0.00454465	98.6923
0.00457088	98.9703
0.00459727	99.2491
0.00462381	99.5287
0.0046505	99.8091
0.00467735	100.09
0.00470435	100.372
0.00473151	100.655
0.00475883	100.939
0.0047863	101.223
0.00481393	101.509
0.00484172	101.795
0.00486968	102.082
0.00489779	102.369
0.00492606	102.658
0.0049545	102.947
0.0049831	103.238
0.00501187	103.529
0.00504081	103.821
0.00506991	104.113
0.00509918	104.407
0.00512861	104.701
0.00515822	104.997
0.005188	105.293
0.00521795	105.59
0.00524807	105.888
0.00527837	106.187
0.00530884	106.486
0.00533949	106.787
0.00537032	107.088
0.00540132	107.39
0.0054325	107.693
0.00546387	107.997
0.00549541	108.302
0.00552713	108.608
0.00555904	108.914
0.00559114	109.222
0.00562341	109.53
0.00565588	109.84
0.00568853	110.15
0.00572137	110.461
0.0057544	110.773
0.00578762	111.086
0.00582103	111.399
0.00585464	111.714
0.00588844	112.03
0.00592243	112.346
0.00595662	112.663
0.00599101	112.982
0.0060256	113.301
0.00606038	113.621
0.00609537	113.942
0.00613056	114.264
0.00616595	114.587
0.00620155	114.911
0.00623735	115.236
0.00627336	115.562
0.00630957	115.888
0.006346	116.216
0.00638263	116.545
0.00641948	116.874
0.00645654	117.205
0.00649382	117.536
0.00653131	117.869
0.00656901	118.202
0.00660693	118.536
0.00664508	118.872
0.00668344	119.208
0.00672202	119.545
0.00676083	119.883
0.00679986	120.223
0.00683912	120.563
0.0068786	120.904
0.00691831	121.246
0.00695825	121.589
0.00699842	121.933
0.00703882	122.279
0.00707946	122.625
0.00712033	122.972
0.00716143	123.32
0.00720278	123.669
0.00724436	124.019
0.00728618	124.371
0.00732825	124.723
0.00737055	125.076
0.0074131	125.43
0.0074559	125.786
0.00749894	126.142
0.00754223	126.499
0.00758578	126.858
0.00762957	127.217
0.00767361	127.578
0.00771792	127.939
0.00776247	128.302
0.00780728	128.665
0.00785236	129.03
0.00789769	129.396
0.00794328	129.763
0.00798914	130.131
0.00803526	130.499
0.00808165	130.869
0.00812831	131.241
0.00817523	131.613
0.00822243	131.986
0.0082699	132.36
0.00831764	132.736
0.00836566	133.112
0.00841395	133.49
0.00846253	133.868
0.00851138	134.248
0.00856052	134.629
0.00860994	135.011
0.00865964	135.394
0.00870964	135.778
0.00875992	136.164
0.00881049	136.55
0.00886135	136.938
0.00891251	137.327
0.00896396	137.716
0.00901571	138.107
0.00906776	138.499
0.00912011	138.893
0.00917276	139.287
0.00922571	139.683
0.00927897	140.079
0.00933254	140.477
0.00938642	140.876
0.00944061	141.276
0.00949511	141.678
0.00954993	142.08
0.00960506	142.484
0.00966051	142.889
0.00971628	143.295
0.00977237	143.702
0.00982879	144.11
0.00988553	144.52
0.0099426	144.931
0.01	145.342
0.0100577	145.756
0.0101158	146.17
0.0101742	146.586
0.0102329	147.002
0.010292	147.42
0.0103514	147.84
0.0104112	148.26
0.0104713	148.682
0.0105317	149.105
0.0105925	149.529
0.0106537	149.954
0.0107152	150.381
0.0107771	150.808
0.0108393	151.237
0.0109018	151.668
0.0109648	152.099
0.0110281	152.532
0.0110917	152.966
0.0111558	153.402
0.0112202	153.838
0.011285	154.276
0.0113501	154.715
0.0114156	155.156
0.0114815	155.598
0.0115478	156.041
0.0116145	156.485
0.0116815	156.931
0.011749	157.378
0.0118168	157.826
0.011885	158.275
0.0119536	158.726
0.0120226	159.178
0.0120921	159.632
0.0121619	160.087
0.0122321	160.543
0.0123027	161
0.0123737	161.459
0.0124451	161.919
0.012517	162.381
0.0125893	162.844
0.0126619	163.308
0.012735	163.773
0.0128086	164.24
0.0128825	164.709
0.0129569	165.178
0.0130317	165.649
0.0131069	166.122
0.0131826	166.595
0.0132587	167.07
0.0133352	167.547
0.0134122	168.025
0.0134896	168.504
0.0135675	168.985
0.0136458	169.467
0.0137246	169.951
0.0138038	170.436
0.0138835	170.922
0.0139637	171.41
0.0140443	171.899
0.0141254	172.39
0.0142069	172.882
0.0142889	173.375
0.0143714	173.87
0.0144544	174.367
0.0145378	174.864
0.0146218	175.364
0.0147062	175.865
0.0147911	176.367
0.0148765	176.871
0.0149624	177.376
0.0150487	177.882
0.0151356	178.391
0.015223	178.9
0.0153109	179.411
0.0153993	179.924
0.0154882	180.438
0.0155776	180.954
0.0156675	181.471
0.015758	181.99
0.0158489	182.51
0.0159404	183.031
0.0160325	183.371
0.016125	183.493
0.0162181	183.616
0.0163117	183.741
0.0164059	183.867
0.0165006	183.994
0.0165959	184.122
0.0166917	184.252
0.016788	184.382
0.016885	184.514
0.0169824	184.647
0.0170805	184.782
0.0171791	184.917
0.0172783	185.054
0.017378	185.191
0.0174783	185.33
0.0175792	185.47
0.0176807	185.611
0.0177828	185.753
0.0178855	185.896
0.0179887	186.04
0.0180926	186.185
0.018197	186.332
0.0183021	186.479
0.0184077	186.627
0.018514	186.776
0.0186209	186.926
0.0187284	187.077
0.0188365	187.229
0.0189452	187.382
0.0190546	187.536
0.0191646	187.69
0.0192752	187.846
0.0193865	188.003
0.0194984	188.16
0.019611	188.318
0.0197242	188.477
0.0198381	188.637
0.0199526	188.798
0.0200678	188.96
0.0201837	189.122
0.0203002	189.286
0.0204174	189.45
0.0205353	189.615
0.0206538	189.78
0.020773	189.947
0.020893	190.114
0.0210136	190.282
0.0211349	190.451
0.0212569	190.62
0.0213796	190.791
0.021503	190.962
0.0216272	191.134
0.021752	191.306
0.0218776	191.479
0.0220039	191.653
0.0221309	191.828
0.0222587	192.004
0.0223872	192.18
0.0225165	192.357
0.0226464	192.534
0.0227772	192.712
0.0229087	192.891
0.0230409	193.071
0.0231739	193.251
0.0233077	193.432
0.0234423	193.614
0.0235776	193.796
0.0237137	193.979
0.0238506	194.163
0.0239883	194.347
0.0241268	194.532
0.0242661	194.718
0.0244062	194.904
0.0245471	195.091
0.0246888	195.278
0.0248313	195.467
0.0249747	195.655
0.0251189	195.845
0.0252639	196.035
0.0254097	196.226
0.0255564	196.417
0.025704	196.609
0.0258523	196.802
0.0260016	196.995
0.0261517	197.189
0.0263027	197.384
0.0264545	197.579
0.0266073	197.775
0.0267609	197.971
0.0269153	198.168
0.0270707	198.366
0.027227	198.564
0.0273842	198.763
0.0275423	198.962
0.0277013	199.163
0.0278612	199.363
0.0280221	199.565
0.0281838	199.767
0.0283465	199.969
0.0285102	200.173
0.0286748	200.376
0.0288403	200.581
0.0290068	200.786
0.0291743	200.992
0.0293427	201.198
0.0295121	201.405
0.0296825	201.613
0.0298538	201.821
0.0300262	202.03
0.0301995	202.239
0.0303739	202.45
0.0305492	202.66
0.0307256	202.872
0.030903	203.084
0.0310814	203.297
0.0312608	203.51
0.0314413	203.724
0.0316228	203.938
0.0318053	204.154
0.031989	204.37
0.0321736	204.586
0.0323594	204.803
0.0325462	205.021
0.0327341	205.24
0.032923	205.459
0.0331131	205.679
0.0333043	205.899
0.0334965	206.121
0.0336899	206.342
0.0338844	206.565
0.03408	206.788
0.0342768	207.012
0.0344747	207.236
0.0346737	207.462
0.0348739	207.688
0.0350752	207.914
0.0352777	208.142
0.0354813	208.37
0.0356862	208.598
0.0358922	208.828
0.0360994	209.058
0.0363078	209.289
0.0365174	209.52
0.0367282	209.752
0.0369403	209.985
0.0371535	210.219
0.037368	210.453
0.0375837	210.689
0.0378007	210.924
0.0380189	211.161
0.0382384	211.398
0.0384592	211.637
0.0386812	211.875
0.0389045	212.115
0.0391291	212.355
0.039355	212.597
0.0395822	212.838
0.0398107	213.081
0.0400405	213.325
0.0402717	213.569
0.0405042	213.814
0.040738	214.06
0.0409732	214.306
0.0412098	214.554
0.0414477	214.802
0.0416869	215.051
0.0419276	215.301
0.0421697	215.551
0.0424131	215.803
0.042658	216.055
0.0429042	216.308
0.0431519	216.562
0.043401	216.817
0.0436516	217.073
0.0439036	217.329
0.044157	217.586
0.044412	217.845
0.0446684	218.104
0.0449262	218.363
0.0451856	218.624
0.0454465	218.886
0.0457088	219.148
0.0459727	219.412
0.0462381	219.676
0.046505	219.941
0.0467735	220.208
0.0470435	220.475
0.0473151	220.743
0.0475883	221.011
0.047863	221.281
0.0481393	221.552
0.0484172	221.824
0.0486968	222.096
0.0489779	222.37
0.0492606	222.644
0.049545	222.92
0.049831	223.196
0.0501187	223.473
0.0504081	223.752
0.0506991	224.031
0.0509918	224.311
0.0512861	224.593
0.0515822	224.875
0.05188	225.158
0.0521795	225.442
0.0524807	225.728
0.0527837	226.014
0.0530884	226.301
0.0533949	226.59
0.0537032	226.879
0.0540132	227.169
0.054325	227.461
0.0546387	227.753
0.0549541	228.047
0.0552713	228.341
0.0555904	228.637
0.0559114	228.934
0.0562341	229.232
0.0565588	229.531
0.0568853	229.831
0.0572137	230.132
0.057544	230.434
0.0578762	230.737
0.0582103	231.042
0.0585464	231.347
0.0588844	231.654
0.0592243	231.961
0.0595662	232.27
0.0599101	232.58
0.060256	232.891
0.0606038	233.204
0.0609537	233.517
0.0613056	233.832
0.0616595	234.148
0.0620155	234.465
0.0623735	234.783
0.0627336	235.102
0.0630957	235.423
0.06346	235.744
0.0638263	236.067
0.0641948	236.391
0.0645654	236.717
0.0649382	237.043
0.0653131	237.371
0.0656901	237.7
0.0660693	238.03
0.0664508	238.362
0.0668344	238.695
0.0672202	239.029
0.0676083	239.364
0.0679986	239.7
0.0683912	240.038
0.068786	240.377
0.0691831	240.717
0.0695825	241.059
0.0699842	241.402
0.0703882	241.746
0.0707946	242.092
0.0712033	242.439
0.0716143	242.787
0.0720278	243.136
0.0724436	243.487
0.0728618	243.839
0.0732825	244.193
0.0737055	244.548
0.074131	244.904
0.074559	245.261
0.0749894	245.62
0.0754223	245.981
0.0758578	246.342
0.0762957	246.705
0.0767361	247.07
0.0771792	247.435
0.0776247	247.803
0.0780728	248.171
0.0785236	248.541
0.0789769	248.913
0.0794328	249.286
0.0798914	249.66
0.0803526	250.036
0.0808165	250.413
0.0812831	250.792
0.0817523	251.172
0.0822243	251.553
0.082699	251.936
0.0831764	252.321
0.0836566	252.707
0.0841395	253.094
0.0846253	253.483
0.0851138	253.873
0.0856052	254.265
0.0860994	254.659
0.0865964	255.053
0.0870964	255.45
0.0875992	255.848
0.0881049	256.247
0.0886135	256.648
0.0891251	257.051
0.0896396	257.455
0.0901571	257.861
0.0906776	258.268
0.0912011	258.676
0.0917276	259.087
0.0922571	259.499
0.0927897	259.912
0.0933254	260.327
0.0938642	260.744
0.0944061	261.162
0.0949511	261.582
0.0954993	262.003
0.0960506	262.426
0.0966051	262.851
0.0971628	263.277
0.0977237	263.705
0.0982879	264.135
0.0988553	264.566
0.099426	264.999
0.1	265.433
0.100577	265.869
0.101158	266.307
0.101742	266.747
0.102329	267.188
0.10292	267.63
0.103514	268.075
0.104112	268.521
0.104713	268.969
0.105317	269.419
0.105925	269.87
0.106537	270.323
0.107152	270.777
0.107771	271.234
0.108393	271.692
0.109018	272.152
0.109648	272.614
0.110281	273.077
0.110917	273.542
0.111558	274.009
0.112202	274.477
0.11285	274.948
0.113501	275.42
0.114156	275.894
0.114815	276.369
0.115478	276.847
0.116145	277.326
0.116815	277.807
0.11749	278.29
0.118168	278.775
0.11885	279.261
0.119536	279.749
0.120226	280.24
0.120921	280.731
0.121619	281.225
0.122321	281.721
0.123027	282.218
0.123737	282.717
0.124451	283.219
0.12517	283.722
0.125893	284.226
0.126619	284.733
0.12735	285.242
0.128086	285.752
0.128825	286.264
0.129569	286.778
0.130317	287.295
0.131069	287.813
0.131826	288.332
0.132587	288.854
0.133352	289.378
0.134122	289.903
0.134896	290.431
0.135675	290.96
0.136458	291.492
0.137246	292.025
0.138038	292.56
0.138835	293.097
0.139637	293.636
0.140443	294.177
0.141254	294.72
0.142069	295.265
0.142889	295.812
0.143714	296.361
0.144544	296.912
0.145378	297.464
0.146218	298.019
0.147062	298.576
0.147911	299.135
0.148765	299.695
0.149624	300.258
0.150487	300.823
0.151356	301.389
0.15223	301.958
0.153109	302.529
0.153993	303.101
0.154882	303.676
0.155776	304.253
0.156675	304.832
0.15758	305.413
0.158489	305.995
0.159404	306.58
0.160325	307.167
0.16125	307.756
0.162181	308.347
0.163117	308.94
0.164059	309.535
0.165006	310.132
0.165959	310.731
0.166917	311.333
0.16788	311.936
0.16885	312.541
0.169824	313.149
0.170805	313.758
0.171791	314.37
0.172783	314.983
0.17378	315.599
0.174783	316.217
0.175792	316.837
0.176807	317.459
0.177828	318.083
0.178855	318.709
0.179887	319.337
0.180926	319.968
0.18197	320.6
0.183021	321.235
0.184077	321.871
0.18514	322.51
0.186209	323.151
0.187284	323.794
0.188365	324.439
0.189452	325.086
0.190546	325.736
0.191646	326.387
0.192752	327.041
0.193865	327.697
0.194984	328.354
0.19611	329.014
0.197242	329.676
0.198381	330.341
0.199526	331.007
0.200678	331.675
0.201837	332.346
0.203002	333.019
0.204174	333.694
0.205353	334.371
0.206538	335.05
0.20773	335.731
0.20893	336.414
0.210136	337.1
0.211349	337.788
0.212569	338.478
0.213796	339.17
0.21503	339.864
0.216272	340.56
0.21752	341.258
0.218776	341.959
0.220039	342.661
0.221309	343.366
0.222587	344.073
0.223872	344.782
0.225165	345.494
0.226464	346.207
0.227772	346.922
0.229087	347.64
0.230409	348.36
0.231739	349.082
0.233077	350.264
0.234423	351.455
0.235776	352.652
0.237137	353.858
0.238506	355.07
0.239883	356.291
0.241268	357.518
0.242661	358.754
0.244062	359.997
0.245471	361.247
0.246888	362.506
0.248313	363.772
0.249747	365.046
0.251189	366.329
0.252639	367.619
0.254097	368.917
0.255564	370.223
0.25704	371.538
0.258523	372.861
0.260016	374.192
0.261517	375.531
0.263027	376.879
0.264545	378.235
0.266073	379.6
0.267609	380.974
0.269153	382.356
0.270707	383.747
0.27227	385.147
0.273842	386.555
0.275423	387.973
0.277013	389.4
0.278612	390.835
0.280221	392.28
0.281838	393.734
0.283465	395.198
0.285102	396.67
0.286748	398.153
0.288403	399.644
0.290068	401.145
0.291743	402.656
0.293427	404.177
0.295121	405.707
0.296825	407.248
0.298538	408.798
0.300262	410.358
0.301995	411.928
0.303739	413.509
0.305492	415.099
0.307256	416.7
0.30903	418.312
0.310814	419.934
0.312608	421.566
0.314413	423.209
0.316228	424.863
0.318053	426.528
0.31989	428.204
0.321736	429.89
0.323594	431.588
0.325462	433.297
0.327341	435.017
0.32923	436.748
0.331131	438.491
0.333043	440.245
0.334965	442.011
0.336899	443.788
0.338844	445.577
0.3408	447.378
0.342768	449.192
0.344747	451.017
0.346737	452.854
0.348739	454.703
0.350752	456.565
0.352777	458.439
0.354813	460.326
0.356862	462.225
0.358922	464.138
0.360994	466.062
0.363078	468
0.365174	469.951
0.367282	471.915
0.369403	473.892
0.371535	475.883
0.37368	477.887
0.375837	479.904
0.378007	481.935
0.380189	483.98
0.382384	486.039
0.384592	488.111
0.386812	490.198
0.389045	492.299
0.391291	494.414
0.39355	496.544
0.395822	498.688
0.398107	500.847
0.400405	503.021
0.402717	505.082
0.405042	506.967
0.40738	508.862
0.409732	510.765
0.412098	512.677
0.414477	514.598
0.416869	516.529
0.419276	518.469
0.421697	520.418
0.424131	522.376
0.42658	524.344
0.429042	526.32
0.431519	528.307
0.43401	530.302
0.436516	532.307
0.439036	534.321
0.44157	536.344
0.44412	538.377
0.446684	540.42
0.449262	542.471
0.451856	544.533
0.454465	546.603
0.457088	548.683
0.459727	550.773
0.462381	552.872
0.46505	554.981
0.467735	557.099
0.470435	559.227
0.473151	561.365
0.475883	563.512
0.47863	565.668
0.481393	567.835
0.484172	570.011
0.486968	572.196
0.489779	574.392
0.492606	576.596
0.49545	578.811
0.49831	581.035
0.501187	582.827
0.504081	585.066
0.506991	587.314
0.509918	589.572
0.512861	591.84
0.515822	594.118
0.5188	596.405
0.521795	598.702
0.524807	601.009
0.527837	603.325
0.530884	605.651
0.533949	607.987
0.537032	610.332
0.540132	612.688
0.54325	615.053
0.546387	617.428
0.549541	619.812
0.552713	622.206
0.555904	624.61
0.559114	627.024
0.562341	629.448
0.565588	631.881
0.568853	634.324
0.572137	636.776
0.57544	639.239
0.578762	641.711
0.582103	644.193
0.585464	646.684
0.588844	649.185
0.592243	651.696
0.595662	654.217
0.599101	656.747
0.60256	659.287
0.606038	661.836
0.609537	664.396
0.613056	666.964
