Stopping power dEdx from Ionisation for P31[0.0] Z = 15 in Water, process name: ionIoni
E [MeV]	dEdx [MeV/mm]
0.001	22.4655
0.00100577	22.5307
0.00101158	22.596
0.00101742	22.6615
0.00102329	22.7272
0.0010292	22.793
0.00103514	22.8591
0.00104112	22.9254
0.00104713	22.9918
0.00105317	23.0584
0.00105925	23.1253
0.00106537	23.1923
0.00107152	23.2595
0.00107771	23.3269
0.00108393	23.3945
0.00109018	23.4623
0.00109648	23.5303
0.00110281	23.5985
0.00110917	23.6669
0.00111558	23.7355
0.00112202	23.8043
0.0011285	23.8733
0.00113501	23.9424
0.00114156	24.0118
0.00114815	24.0814
0.00115478	24.1512
0.00116145	24.2212
0.00116815	24.2913
0.0011749	24.3617
0.00118168	24.4323
0.0011885	24.5031
0.00119536	24.5741
0.00120226	24.6453
0.00120921	24.7167
0.00121619	24.7883
0.00122321	24.8601
0.00123027	24.9322
0.00123737	25.0044
0.00124451	25.0768
0.0012517	25.1495
0.00125893	25.2223
0.00126619	25.2954
0.0012735	25.3687
0.00128086	25.4422
0.00128825	25.5159
0.00129569	25.5898
0.00130317	25.6639
0.00131069	25.7382
0.00131826	25.8128
0.00132587	25.8876
0.00133352	25.9626
0.00134122	26.0378
0.00134896	26.1132
0.00135675	26.1888
0.00136458	26.2647
0.00137246	26.3407
0.00138038	26.417
0.00138835	26.4935
0.00139637	26.5703
0.00140443	26.6472
0.00141254	26.7244
0.00142069	26.8018
0.00142889	26.8794
0.00143714	26.9573
0.00144544	27.0353
0.00145378	27.1136
0.00146218	27.1922
0.00147062	27.2709
0.00147911	27.3499
0.00148765	27.4291
0.00149624	27.5085
0.00150487	27.5882
0.00151356	27.668
0.0015223	27.7482
0.00153109	27.8285
0.00153993	27.9091
0.00154882	27.9899
0.00155776	28.0709
0.00156675	28.1522
0.0015758	28.2337
0.00158489	28.3155
0.00159404	28.3975
0.00160325	28.4797
0.0016125	28.5622
0.00162181	28.6448
0.00163117	28.7278
0.00164059	28.8109
0.00165006	28.8944
0.00165959	28.978
0.00166917	29.0619
0.0016788	29.146
0.0016885	29.2304
0.00169824	29.315
0.00170805	29.3999
0.00171791	29.485
0.00172783	29.5704
0.0017378	29.656
0.00174783	29.7418
0.00175792	29.8279
0.00176807	29.9143
0.00177828	30.0008
0.00178855	30.0877
0.00179887	30.1748
0.00180926	30.2621
0.0018197	30.3497
0.00183021	30.4376
0.00184077	30.5257
0.0018514	30.614
0.00186209	30.7026
0.00187284	30.7915
0.00188365	30.8806
0.00189452	30.97
0.00190546	31.0596
0.00191646	31.1495
0.00192752	31.2397
0.00193865	31.3301
0.00194984	31.4208
0.0019611	31.5117
0.00197242	31.6029
0.00198381	31.6943
0.00199526	31.7861
0.00200678	31.8781
0.00201837	31.9703
0.00203002	32.0628
0.00204174	32.1556
0.00205353	32.2487
0.00206538	32.342
0.0020773	32.4356
0.0020893	32.5294
0.00210136	32.6236
0.00211349	32.718
0.00212569	32.8126
0.00213796	32.9076
0.0021503	33.0028
0.00216272	33.0983
0.0021752	33.1941
0.00218776	33.2901
0.00220039	33.3864
0.00221309	33.483
0.00222587	33.5799
0.00223872	33.6771
0.00225165	33.7745
0.00226464	33.8722
0.00227772	33.9702
0.00229087	34.0685
0.00230409	34.1671
0.00231739	34.2659
0.00233077	34.3651
0.00234423	34.4645
0.00235776	34.5642
0.00237137	34.6642
0.00238506	34.7645
0.00239883	34.865
0.00241268	34.9659
0.00242661	35.0671
0.00244062	35.1685
0.00245471	35.2702
0.00246888	35.3723
0.00248313	35.4746
0.00249747	35.5772
0.00251189	35.6801
0.00252639	35.7833
0.00254097	35.8869
0.00255564	35.9907
0.0025704	36.0948
0.00258523	36.1992
0.00260016	36.3039
0.00261517	36.4089
0.00263027	36.5142
0.00264545	36.6198
0.00266073	36.7257
0.00267609	36.832
0.00269153	36.9385
0.00270707	37.0453
0.0027227	37.1525
0.00273842	37.2599
0.00275423	37.3677
0.00277013	37.4758
0.00278612	37.5842
0.00280221	37.6929
0.00281838	37.8019
0.00283465	37.9112
0.00285102	38.0208
0.00286748	38.1308
0.00288403	38.2411
0.00290068	38.3517
0.00291743	38.4626
0.00293427	38.5738
0.00295121	38.6854
0.00296825	38.7972
0.00298538	38.9094
0.00300262	39.022
0.00301995	39.1348
0.00303739	39.248
0.00305492	39.3615
0.00307256	39.4753
0.0030903	39.5894
0.00310814	39.7039
0.00312608	39.8187
0.00314413	39.9339
0.00316228	40.0493
0.00318053	40.1651
0.0031989	40.2813
0.00321736	40.3978
0.00323594	40.5146
0.00325462	40.6317
0.00327341	40.7492
0.0032923	40.867
0.00331131	40.9852
0.00333043	41.1037
0.00334965	41.2225
0.00336899	41.3417
0.00338844	41.4612
0.003408	41.5811
0.00342768	41.7013
0.00344747	41.8219
0.00346737	41.9428
0.00348739	42.0641
0.00350752	42.1857
0.00352777	42.3077
0.00354813	42.43
0.00356862	42.5526
0.00358922	42.6757
0.00360994	42.799
0.00363078	42.9228
0.00365174	43.0469
0.00367282	43.1713
0.00369403	43.2961
0.00371535	43.4213
0.0037368	43.5468
0.00375837	43.6727
0.00378007	43.7989
0.00380189	43.9255
0.00382384	44.0525
0.00384592	44.1799
0.00386812	44.3076
0.00389045	44.4356
0.00391291	44.5641
0.0039355	44.6929
0.00395822	44.8221
0.00398107	44.9517
0.00400405	45.0816
0.00402717	45.2119
0.00405042	45.3426
0.0040738	45.4737
0.00409732	45.6051
0.00412098	45.7369
0.00414477	45.8691
0.00416869	46.0017
0.00419276	46.1347
0.00421697	46.268
0.00424131	46.4017
0.0042658	46.5358
0.00429042	46.6704
0.00431519	46.8052
0.0043401	46.9405
0.00436516	47.0762
0.00439036	47.2122
0.0044157	47.3487
0.0044412	47.4855
0.00446684	47.6228
0.00449262	47.7604
0.00451856	47.8984
0.00454465	48.0369
0.00457088	48.1757
0.00459727	48.3149
0.00462381	48.4546
0.0046505	48.5946
0.00467735	48.735
0.00470435	48.8759
0.00473151	49.0171
0.00475883	49.1588
0.0047863	49.3008
0.00481393	49.4433
0.00484172	49.5862
0.00486968	49.7295
0.00489779	49.8732
0.00492606	50.0173
0.0049545	50.1618
0.0049831	50.3068
0.00501187	50.4522
0.00504081	50.598
0.00506991	50.7442
0.00509918	50.8908
0.00512861	51.1655
0.00515822	51.3129
0.005188	51.4609
0.00521795	51.6092
0.00524807	51.7579
0.00527837	51.9071
0.00530884	52.0567
0.00533949	52.2068
0.00537032	52.3573
0.00540132	52.5082
0.0054325	52.6595
0.00546387	52.8113
0.00549541	52.9635
0.00552713	53.1162
0.00555904	53.2693
0.00559114	53.4228
0.00562341	53.5768
0.00565588	53.7313
0.00568853	53.8861
0.00572137	54.0414
0.0057544	54.1972
0.00578762	54.3534
0.00582103	54.5101
0.00585464	54.6672
0.00588844	54.8248
0.00592243	54.9828
0.00595662	55.1413
0.00599101	55.3002
0.0060256	55.4596
0.00606038	55.6195
0.00609537	55.7798
0.00613056	55.9406
0.00616595	56.1018
0.00620155	56.2635
0.00623735	56.4257
0.00627336	56.5883
0.00630957	56.7514
0.006346	56.915
0.00638263	57.0791
0.00641948	57.2436
0.00645654	57.4086
0.00649382	57.5741
0.00653131	57.74
0.00656901	57.9065
0.00660693	58.0734
0.00664508	58.2407
0.00668344	58.4086
0.00672202	58.577
0.00676083	58.7458
0.00679986	58.9151
0.00683912	59.085
0.0068786	59.2553
0.00691831	59.4261
0.00695825	59.5974
0.00699842	59.7691
0.00703882	59.9414
0.00707946	60.1142
0.00712033	60.2875
0.00716143	60.4612
0.00720278	60.6355
0.00724436	60.8103
0.00728618	60.9856
0.00732825	61.1613
0.00737055	61.3376
0.0074131	61.5144
0.0074559	61.6917
0.00749894	61.8695
0.00754223	62.0479
0.00758578	62.2267
0.00762957	62.4061
0.00767361	62.586
0.00771792	62.7664
0.00776247	62.9473
0.00780728	63.1287
0.00785236	63.3107
0.00789769	63.4932
0.00794328	63.6762
0.00798914	63.8597
0.00803526	64.0438
0.00808165	64.2284
0.00812831	64.4135
0.00817523	64.5992
0.00822243	64.7854
0.0082699	64.9721
0.00831764	65.1594
0.00836566	65.3472
0.00841395	65.5356
0.00846253	65.7244
0.00851138	65.9139
0.00856052	66.1039
0.00860994	66.2944
0.00865964	66.4855
0.00870964	66.6771
0.00875992	66.8693
0.00881049	67.0621
0.00886135	67.2554
0.00891251	67.4492
0.00896396	67.6436
0.00901571	67.8386
0.00906776	68.0341
0.00912011	68.2302
0.00917276	68.4269
0.00922571	68.6241
0.00927897	68.8219
0.00933254	69.0203
0.00938642	69.2193
0.00944061	69.4188
0.00949511	69.6189
0.00954993	69.8195
0.00960506	70.0208
0.00966051	70.2226
0.00971628	70.425
0.00977237	70.628
0.00982879	70.8316
0.00988553	71.0357
0.0099426	71.2405
0.01	71.4458
0.0100577	71.6518
0.0101158	71.8583
0.0101742	72.0654
0.0102329	72.2731
0.010292	72.4815
0.0103514	72.6904
0.0104112	72.8999
0.0104713	73.11
0.0105317	73.3208
0.0105925	73.5321
0.0106537	73.744
0.0107152	73.9566
0.0107771	74.1698
0.0108393	74.3836
0.0109018	74.598
0.0109648	74.813
0.0110281	75.0286
0.0110917	75.2449
0.0111558	75.4618
0.0112202	75.6793
0.011285	75.8974
0.0113501	76.1162
0.0114156	76.3356
0.0114815	76.5556
0.0115478	76.7763
0.0116145	76.9976
0.0116815	77.2195
0.011749	77.4421
0.0118168	77.6653
0.011885	77.8891
0.0119536	78.1137
0.0120226	78.3388
0.0120921	78.5646
0.0121619	78.7911
0.0122321	79.0182
0.0123027	79.2459
0.0123737	79.4743
0.0124451	79.7034
0.012517	79.9332
0.0125893	80.1636
0.0126619	80.3946
0.012735	80.6263
0.0128086	80.8587
0.0128825	81.0918
0.0129569	81.3255
0.0130317	81.56
0.0131069	81.795
0.0131826	82.0308
0.0132587	82.2672
0.0133352	82.5044
0.0134122	82.7422
0.0134896	82.9807
0.0135675	83.2199
0.0136458	83.4597
0.0137246	83.7003
0.0138038	83.9415
0.0138835	84.1835
0.0139637	84.4261
0.0140443	84.6695
0.0141254	84.9135
0.0142069	85.1583
0.0142889	85.4038
0.0143714	85.6499
0.0144544	85.8968
0.0145378	86.1444
0.0146218	86.3927
0.0147062	86.6417
0.0147911	86.8914
0.0148765	87.1419
0.0149624	87.3931
0.0150487	87.645
0.0151356	87.8976
0.015223	88.1509
0.0153109	88.405
0.0153993	88.6598
0.0154882	88.9154
0.0155776	89.1717
0.0156675	89.4287
0.015758	89.6865
0.0158489	89.945
0.0159404	90.2042
0.0160325	90.4642
0.016125	90.725
0.0162181	90.9865
0.0163117	91.2488
0.0164059	91.5118
0.0165006	91.7755
0.0165959	92.0401
0.0166917	92.3054
0.016788	92.5714
0.016885	92.8383
0.0169824	93.1058
0.0170805	93.3742
0.0171791	93.6434
0.0172783	93.9133
0.017378	94.184
0.0174783	94.4554
0.0175792	94.7277
0.0176807	95.0007
0.0177828	95.2746
0.0178855	95.5492
0.0179887	95.8246
0.0180926	96.1008
0.018197	96.3778
0.0183021	96.6556
0.0184077	96.9342
0.018514	97.2136
0.0186209	97.4938
0.0187284	97.7748
0.0188365	98.0566
0.0189452	98.3393
0.0190546	98.6227
0.0191646	98.907
0.0192752	99.1921
0.0193865	99.478
0.0194984	99.7647
0.019611	100.052
0.0197242	100.341
0.0198381	100.63
0.0199526	100.92
0.0200678	101.211
0.0201837	101.503
0.0203002	101.795
0.0204174	102.089
0.0205353	102.383
0.0206538	102.678
0.020773	102.974
0.020893	103.271
0.0210136	103.568
0.0211349	103.867
0.0212569	104.166
0.0213796	104.466
0.021503	104.768
0.0216272	105.07
0.021752	105.372
0.0218776	105.676
0.0220039	105.981
0.0221309	106.286
0.0222587	106.593
0.0223872	106.9
0.0225165	107.208
0.0226464	107.517
0.0227772	107.827
0.0229087	108.138
0.0230409	108.449
0.0231739	108.762
0.0233077	109.075
0.0234423	109.39
0.0235776	109.705
0.0237137	110.021
0.0238506	110.338
0.0239883	110.657
0.0241268	110.975
0.0242661	111.295
0.0244062	111.616
0.0245471	111.938
0.0246888	112.26
0.0248313	112.584
0.0249747	112.909
0.0251189	113.234
0.0252639	113.56
0.0254097	113.888
0.0255564	114.216
0.025704	114.545
0.0258523	114.875
0.0260016	115.206
0.0261517	115.539
0.0263027	115.872
0.0264545	116.206
0.0266073	116.541
0.0267609	116.876
0.0269153	117.213
0.0270707	117.551
0.027227	117.89
0.0273842	118.23
0.0275423	118.571
0.0277013	118.912
0.0278612	119.255
0.0280221	119.599
0.0281838	119.944
0.0283465	120.289
0.0285102	120.636
0.0286748	120.984
0.0288403	121.332
0.0290068	121.682
0.0291743	122.033
0.0293427	122.385
0.0295121	122.737
0.0296825	123.091
0.0298538	123.446
0.0300262	123.802
0.0301995	124.159
0.0303739	124.517
0.0305492	124.875
0.0307256	125.235
0.030903	125.596
0.0310814	125.958
0.0312608	126.321
0.0314413	126.686
0.0316228	127.051
0.0318053	127.417
0.031989	127.784
0.0321736	128.152
0.0323594	128.522
0.0325462	128.892
0.0327341	129.264
0.032923	129.636
0.0331131	130.01
0.0333043	130.385
0.0334965	130.761
0.0336899	131.138
0.0338844	131.516
0.03408	131.895
0.0342768	132.275
0.0344747	132.656
0.0346737	133.038
0.0348739	133.422
0.0350752	133.806
0.0352777	134.192
0.0354813	134.579
0.0356862	134.967
0.0358922	135.356
0.0360994	135.746
0.0363078	136.137
0.0365174	136.53
0.0367282	136.923
0.0369403	137.318
0.0371535	137.714
0.037368	138.111
0.0375837	138.509
0.0378007	138.908
0.0380189	139.308
0.0382384	139.71
0.0384592	140.113
0.0386812	140.516
0.0389045	140.921
0.0391291	141.328
0.039355	141.735
0.0395822	142.143
0.0398107	142.553
0.0400405	142.964
0.0402717	143.376
0.0405042	143.789
0.040738	144.204
0.0409732	144.62
0.0412098	145.036
0.0414477	145.454
0.0416869	145.874
0.0419276	146.294
0.0421697	146.716
0.0424131	147.139
0.042658	147.563
0.0429042	147.988
0.0431519	148.415
0.043401	148.843
0.0436516	149.272
0.0439036	149.702
0.044157	150.133
0.044412	150.566
0.0446684	151
0.0449262	151.435
0.0451856	151.872
0.0454465	152.309
0.0457088	152.749
0.0459727	153.189
0.0462381	153.63
0.046505	154.073
0.0467735	154.517
0.0470435	154.963
0.0473151	155.409
0.0475883	155.857
0.047863	156.306
0.0481393	156.757
0.0484172	157.209
0.0486968	157.662
0.0489779	158.116
0.0492606	158.572
0.049545	159.029
0.049831	159.488
0.0501187	159.947
0.0504081	160.408
0.0506991	160.871
0.0509918	161.334
0.0512861	161.799
0.0515822	162.266
0.05188	162.733
0.0521795	163.203
0.0524807	163.673
0.0527837	164.145
0.0530884	164.618
0.0533949	165.092
0.0537032	165.568
0.0540132	166.045
0.054325	166.524
0.0546387	167.004
0.0549541	167.485
0.0552713	167.968
0.0555904	168.452
0.0559114	168.938
0.0562341	169.425
0.0565588	169.913
0.0568853	170.403
0.0572137	170.894
0.057544	171.387
0.0578762	171.881
0.0582103	172.376
0.0585464	172.873
0.0588844	173.371
0.0592243	173.871
0.0595662	174.372
0.0599101	174.875
0.060256	175.379
0.0606038	175.884
0.0609537	176.391
0.0613056	176.9
0.0616595	177.41
0.0620155	177.921
0.0623735	178.434
0.0627336	178.948
0.0630957	179.464
0.06346	179.981
0.0638263	180.5
0.0641948	181.02
0.0645654	181.542
0.0649382	182.065
0.0653131	182.59
0.0656901	183.116
0.0660693	183.644
0.0664508	184.173
0.0668344	184.704
0.0672202	185.237
0.0676083	185.771
0.0679986	186.306
0.0683912	186.843
0.068786	187.382
0.0691831	187.922
0.0695825	188.463
0.0699842	189.007
0.0703882	189.551
0.0707946	190.098
0.0712033	190.646
0.0716143	191.195
0.0720278	191.746
0.0724436	192.299
0.0728618	192.853
0.0732825	193.409
0.0737055	193.967
0.074131	194.526
0.074559	195.086
0.0749894	195.649
0.0754223	196.213
0.0758578	196.778
0.0762957	197.345
0.0767361	197.914
0.0771792	198.485
0.0776247	199.057
0.0780728	199.631
0.0785236	200.206
0.0789769	200.783
0.0794328	201.362
0.0798914	201.942
0.0803526	202.524
0.0808165	203.108
0.0812831	203.693
0.0817523	204.281
0.0822243	204.869
0.082699	205.46
0.0831764	206.052
0.0836566	206.646
0.0841395	207.242
0.0846253	207.839
0.0851138	208.438
0.0856052	209.039
0.0860994	209.641
0.0865964	210.246
0.0870964	210.852
0.0875992	211.459
0.0881049	212.069
0.0886135	212.68
0.0891251	213.293
0.0896396	213.908
0.0901571	214.525
0.0906776	215.143
0.0912011	215.763
0.0917276	216.385
0.0922571	217.009
0.0927897	217.634
0.0933254	218.261
0.0938642	218.891
0.0944061	219.521
0.0949511	220.154
0.0954993	220.789
0.0960506	221.425
0.0966051	222.063
0.0971628	222.703
0.0977237	223.345
0.0982879	223.989
0.0988553	224.635
0.099426	225.282
0.1	225.932
0.100577	226.583
0.101158	227.236
0.101742	227.891
0.102329	228.548
0.10292	229.207
0.103514	229.867
0.104112	230.53
0.104713	231.194
0.105317	231.861
0.105925	232.529
0.106537	233.199
0.107152	233.871
0.107771	234.545
0.108393	235.221
0.109018	235.899
0.109648	236.579
0.110281	237.261
0.110917	237.945
0.111558	238.631
0.112202	239.319
0.11285	240.009
0.113501	240.7
0.114156	241.394
0.114815	242.09
0.115478	242.788
0.116145	243.488
0.116815	244.189
0.11749	244.893
0.118168	245.599
0.11885	246.307
0.119536	247.017
0.120226	247.729
0.120921	248.443
0.121619	249.159
0.122321	249.877
0.123027	250.598
0.123737	251.32
0.124451	252.044
0.12517	252.771
0.125893	253.499
0.126619	254.23
0.12735	254.963
0.128086	255.698
0.128825	256.435
0.129569	257.174
0.130317	257.915
0.131069	258.659
0.131826	259.404
0.132587	260.152
0.133352	260.902
0.134122	261.654
0.134896	262.408
0.135675	263.164
0.136458	263.923
0.137246	264.684
0.138038	265.446
0.138835	266.212
0.139637	266.979
0.140443	267.748
0.141254	268.52
0.142069	269.294
0.142889	270.07
0.143714	270.849
0.144544	271.63
0.145378	272.412
0.146218	273.198
0.147062	273.985
0.147911	274.775
0.148765	275.567
0.149624	276.361
0.150487	277.158
0.151356	277.957
0.15223	278.758
0.153109	279.561
0.153993	280.367
0.154882	281.175
0.155776	281.986
0.156675	282.798
0.15758	283.614
0.158489	284.431
0.159404	285.251
0.160325	286.073
0.16125	286.898
0.162181	287.725
0.163117	288.554
0.164059	289.386
0.165006	290.22
0.165959	291.056
0.166917	291.895
0.16788	292.737
0.16885	293.58
0.169824	294.427
0.170805	295.275
0.171791	296.126
0.172783	296.98
0.17378	297.836
0.174783	298.694
0.175792	299.555
0.176807	300.419
0.177828	301.285
0.178855	302.153
0.179887	303.024
0.180926	303.897
0.18197	304.773
0.183021	305.652
0.184077	306.533
0.18514	307.416
0.186209	308.302
0.187284	309.191
0.188365	310.082
0.189452	310.976
0.190546	311.872
0.191646	312.771
0.192752	313.673
0.193865	314.577
0.194984	315.484
0.19611	316.393
0.197242	317.305
0.198381	318.22
0.199526	319.137
0.200678	320.057
0.201837	320.979
0.203002	321.904
0.204174	322.832
0.205353	323.763
0.206538	324.696
0.20773	325.632
0.20893	326.571
0.210136	327.512
0.211349	328.456
0.212569	329.403
0.213796	330.352
0.21503	331.304
0.216272	332.259
0.21752	333.217
0.218776	334.177
0.220039	335.141
0.221309	336.107
0.222587	337.075
0.223872	338.047
0.225165	339.021
0.226464	339.998
0.227772	340.978
0.229087	341.961
0.230409	342.947
0.231739	343.935
0.233077	344.927
0.234423	345.921
0.235776	346.918
0.237137	347.918
0.238506	348.921
0.239883	349.927
0.241268	350.935
0.242661	351.947
0.244062	352.961
0.245471	353.979
0.246888	354.999
0.248313	356.022
0.249747	357.048
0.251189	358.077
0.252639	359.11
0.254097	360.145
0.255564	361.183
0.25704	362.224
0.258523	363.268
0.260016	364.315
0.261517	365.365
0.263027	366.418
0.264545	367.474
0.266073	368.533
0.267609	369.596
0.269153	370.661
0.270707	371.729
0.27227	372.801
0.273842	373.875
0.275423	374.953
0.277013	376.034
0.278612	377.118
0.280221	378.205
0.281838	379.295
0.283465	380.388
0.285102	381.485
0.286748	382.584
0.288403	383.687
0.290068	384.793
0.291743	385.902
0.293427	387.014
0.295121	388.13
0.296825	389.249
0.298538	390.37
0.300262	391.496
0.301995	392.624
0.303739	393.756
0.305492	394.891
0.307256	396.029
0.30903	397.17
0.310814	398.315
0.312608	399.463
0.314413	400.615
0.316228	401.769
0.318053	402.928
0.31989	404.089
0.321736	405.254
0.323594	406.422
0.325462	407.593
0.327341	408.768
0.32923	409.946
0.331131	411.128
0.333043	412.313
0.334965	413.501
0.336899	414.693
0.338844	415.889
0.3408	417.087
0.342768	418.289
0.344747	419.495
0.346737	420.704
0.348739	421.917
0.350752	423.133
0.352777	424.353
0.354813	425.576
0.356862	426.803
0.358922	428.033
0.360994	429.266
0.363078	430.504
0.365174	431.745
0.367282	432.989
0.369403	434.237
0.371535	435.489
0.37368	436.744
0.375837	438.003
0.378007	439.265
0.380189	440.531
0.382384	441.801
0.384592	443.075
0.386812	444.352
0.389045	445.633
0.391291	446.917
0.39355	448.205
0.395822	449.497
0.398107	450.793
0.400405	452.092
0.402717	453.395
0.405042	454.702
0.40738	456.013
0.409732	457.327
0.412098	458.645
0.414477	459.967
0.416869	461.293
0.419276	462.623
0.421697	463.956
0.424131	465.293
0.42658	466.635
0.429042	467.98
0.431519	469.329
0.43401	470.681
0.436516	472.038
0.439036	473.399
0.44157	474.763
0.44412	476.132
0.446684	477.504
0.449262	478.88
0.451856	480.261
0.454465	481.645
0.457088	483.033
0.459727	484.425
0.462381	485.822
0.46505	487.222
0.467735	488.626
0.470435	490.035
0.473151	491.447
0.475883	492.864
0.47863	494.284
0.481393	495.709
0.484172	497.138
0.486968	498.571
0.489779	500.008
0.492606	501.449
0.49545	502.895
0.49831	504.344
0.501187	505.798
0.504081	507.256
0.506991	508.718
0.509918	510.184
0.512861	511.655
0.515822	513.129
0.5188	514.609
0.521795	516.092
0.524807	517.579
0.527837	519.071
0.530884	520.567
0.533949	522.068
0.537032	523.573
0.540132	525.082
0.54325	526.595
0.546387	528.113
0.549541	529.635
0.552713	531.162
0.555904	532.693
0.559114	534.228
0.562341	535.768
0.565588	537.313
0.568853	538.861
0.572137	540.414
0.57544	541.972
0.578762	543.534
0.582103	545.101
0.585464	546.672
0.588844	548.248
0.592243	549.828
0.595662	551.413
0.599101	553.002
0.60256	554.596
0.606038	556.195
