Stopping power dEdx from Ionisation for P31[0.0] Z = 15 in G4_TISSUE_SOFT_ICRP, process name: ionIoni
E [MeV]	dEdx [MeV/mm]
0.001	58.9157
0.00100577	59.0855
0.00101158	59.2558
0.00101742	59.4266
0.00102329	59.5979
0.0010292	59.7697
0.00103514	59.942
0.00104112	60.1148
0.00104713	60.288
0.00105317	60.4618
0.00105925	60.6361
0.00106537	60.8109
0.00107152	60.9861
0.00107771	61.1619
0.00108393	61.3382
0.00109018	61.515
0.00109648	61.6923
0.00110281	61.8701
0.00110917	62.0485
0.00111558	62.2273
0.00112202	62.4067
0.0011285	62.5866
0.00113501	62.767
0.00114156	62.9479
0.00114815	63.1293
0.00115478	63.3113
0.00116145	63.4938
0.00116815	63.6768
0.0011749	63.8603
0.00118168	64.0444
0.0011885	64.229
0.00119536	64.4141
0.00120226	64.5998
0.00120921	64.786
0.00121619	64.9727
0.00122321	65.16
0.00123027	65.3478
0.00123737	65.5362
0.00124451	65.7251
0.0012517	65.9145
0.00125893	66.1045
0.00126619	66.2951
0.0012735	66.4861
0.00128086	66.6778
0.00128825	66.87
0.00129569	67.0627
0.00130317	67.256
0.00131069	67.4499
0.00131826	67.6443
0.00132587	67.8393
0.00133352	68.0348
0.00134122	68.2309
0.00134896	68.4276
0.00135675	68.6248
0.00136458	68.8226
0.00137246	69.021
0.00138038	69.2199
0.00138835	69.4194
0.00139637	69.6195
0.00140443	69.8202
0.00141254	70.0215
0.00142069	70.2233
0.00142889	70.4257
0.00143714	70.6287
0.00144544	70.8323
0.00145378	71.0364
0.00146218	71.2412
0.00147062	71.4465
0.00147911	71.6525
0.00148765	71.859
0.00149624	72.0661
0.00150487	72.2738
0.00151356	72.4822
0.0015223	72.6911
0.00153109	72.9006
0.00153993	73.1107
0.00154882	73.3215
0.00155776	73.5328
0.00156675	73.7448
0.0015758	73.9573
0.00158489	74.1705
0.00159404	74.3843
0.00160325	74.5987
0.0016125	74.8137
0.00162181	75.0293
0.00163117	75.2456
0.00164059	75.4625
0.00165006	75.68
0.00165959	75.8981
0.00166917	76.1169
0.0016788	76.3363
0.0016885	76.5563
0.00169824	76.777
0.00170805	76.9983
0.00171791	77.2202
0.00172783	77.4428
0.0017378	77.666
0.00174783	77.8899
0.00175792	78.1144
0.00176807	78.3396
0.00177828	78.5654
0.00178855	78.7918
0.00179887	79.0189
0.00180926	79.2467
0.0018197	79.4751
0.00183021	79.7042
0.00184077	79.9339
0.0018514	80.1643
0.00186209	80.3954
0.00187284	80.6271
0.00188365	80.8595
0.00189452	81.0926
0.00190546	81.3263
0.00191646	81.5607
0.00192752	81.7958
0.00193865	82.0316
0.00194984	82.268
0.0019611	82.5052
0.00197242	82.743
0.00198381	82.9815
0.00199526	83.2207
0.00200678	83.4605
0.00201837	83.7011
0.00203002	83.9423
0.00204174	84.1843
0.00205353	84.427
0.00206538	84.6703
0.0020773	84.9144
0.0020893	85.1591
0.00210136	85.4046
0.00211349	85.6507
0.00212569	85.8976
0.00213796	86.1452
0.0021503	86.3935
0.00216272	86.6425
0.0021752	86.8923
0.00218776	87.1427
0.00220039	87.3939
0.00221309	87.6458
0.00222587	87.8984
0.00223872	88.1518
0.00225165	88.4059
0.00226464	88.6607
0.00227772	88.9162
0.00229087	89.1725
0.00230409	89.4296
0.00231739	89.6873
0.00233077	89.9458
0.00234423	90.2051
0.00235776	90.4651
0.00237137	90.7259
0.00238506	90.9874
0.00239883	91.2496
0.00241268	91.5126
0.00242661	91.7764
0.00244062	92.041
0.00245471	92.3063
0.00246888	92.5723
0.00248313	92.8391
0.00249747	93.1067
0.00251189	93.3751
0.00252639	93.6443
0.00254097	93.9142
0.00255564	94.1849
0.0025704	94.4563
0.00258523	94.7286
0.00260016	95.0016
0.00261517	95.2755
0.00263027	95.5501
0.00264545	95.8255
0.00266073	96.1017
0.00267609	96.3787
0.00269153	96.6565
0.00270707	96.9351
0.0027227	97.2145
0.00273842	97.4947
0.00275423	97.7757
0.00277013	98.0576
0.00278612	98.3402
0.00280221	98.6237
0.00281838	98.9079
0.00283465	99.193
0.00285102	99.4789
0.00286748	99.7657
0.00288403	100.053
0.00290068	100.342
0.00291743	100.631
0.00293427	100.921
0.00295121	101.212
0.00296825	101.504
0.00298538	101.796
0.00300262	102.09
0.00301995	102.384
0.00303739	102.679
0.00305492	102.975
0.00307256	103.272
0.0030903	103.569
0.00310814	103.868
0.00312608	104.167
0.00314413	104.467
0.00316228	104.769
0.00318053	105.071
0.0031989	105.373
0.00321736	105.677
0.00323594	105.982
0.00325462	106.287
0.00327341	106.594
0.0032923	106.901
0.00331131	107.209
0.00333043	107.518
0.00334965	107.828
0.00336899	108.139
0.00338844	108.45
0.003408	108.763
0.00342768	109.076
0.00344747	109.391
0.00346737	109.706
0.00348739	110.022
0.00350752	110.34
0.00352777	110.658
0.00354813	110.977
0.00356862	111.296
0.00358922	111.617
0.00360994	111.939
0.00363078	112.262
0.00365174	112.585
0.00367282	112.91
0.00369403	113.235
0.00371535	113.561
0.0037368	113.889
0.00375837	114.217
0.00378007	114.546
0.00380189	114.876
0.00382384	115.208
0.00384592	115.54
0.00386812	115.873
0.00389045	116.207
0.00391291	116.542
0.0039355	116.878
0.00395822	117.214
0.00398107	117.552
0.00400405	117.891
0.00402717	118.231
0.00405042	118.572
0.0040738	118.913
0.00409732	119.256
0.00412098	119.6
0.00414477	119.945
0.00416869	120.29
0.00419276	120.637
0.00421697	120.985
0.00424131	121.334
0.0042658	121.683
0.00429042	122.034
0.00431519	122.386
0.0043401	122.739
0.00436516	123.092
0.00439036	123.447
0.0044157	123.803
0.0044412	124.16
0.00446684	124.518
0.00449262	124.877
0.00451856	125.237
0.00454465	125.598
0.00457088	125.96
0.00459727	126.323
0.00462381	126.687
0.0046505	127.052
0.00467735	127.418
0.00470435	127.785
0.00473151	128.154
0.00475883	128.523
0.0047863	128.894
0.00481393	129.265
0.00484172	129.638
0.00486968	130.011
0.00489779	130.386
0.00492606	130.762
0.0049545	131.139
0.0049831	131.517
0.00501187	131.896
0.00504081	132.276
0.00506991	132.657
0.00509918	133.04
0.00512861	133.423
0.00515822	133.808
0.005188	134.193
0.00521795	134.58
0.00524807	134.968
0.00527837	135.357
0.00530884	135.747
0.00533949	136.139
0.00537032	136.531
0.00540132	136.924
0.0054325	137.319
0.00546387	137.715
0.00549541	138.112
0.00552713	138.51
0.00555904	138.909
0.00559114	139.31
0.00562341	139.711
0.00565588	140.114
0.00568853	140.518
0.00572137	140.923
0.0057544	141.329
0.00578762	141.736
0.00582103	142.145
0.00585464	142.555
0.00588844	142.965
0.00592243	143.378
0.00595662	143.791
0.00599101	144.205
0.0060256	144.621
0.00606038	145.038
0.00609537	145.456
0.00613056	145.875
0.00616595	146.296
0.00620155	146.717
0.00623735	147.14
0.00627336	147.564
0.00630957	147.99
0.006346	148.416
0.00638263	148.844
0.00641948	149.273
0.00645654	149.703
0.00649382	150.135
0.00653131	150.567
0.00656901	151.001
0.00660693	151.437
0.00664508	151.873
0.00668344	152.311
0.00672202	152.75
0.00676083	153.19
0.00679986	153.632
0.00683912	154.075
0.0068786	154.519
0.00691831	154.964
0.00695825	155.411
0.00699842	155.859
0.00703882	156.308
0.00707946	156.759
0.00712033	157.21
0.00716143	157.663
0.00720278	158.118
0.00724436	158.574
0.00728618	159.031
0.00732825	159.489
0.00737055	159.949
0.0074131	160.41
0.0074559	160.872
0.00749894	161.336
0.00754223	161.801
0.00758578	162.267
0.00762957	162.735
0.00767361	163.204
0.00771792	163.675
0.00776247	164.14
0.00780728	164.602
0.00785236	165.065
0.00789769	165.529
0.00794328	165.995
0.00798914	166.462
0.00803526	166.93
0.00808165	167.4
0.00812831	167.871
0.00817523	168.343
0.00822243	168.817
0.0082699	169.292
0.00831764	169.769
0.00836566	170.247
0.00841395	170.726
0.00846253	171.207
0.00851138	171.689
0.00856052	172.172
0.00860994	172.657
0.00865964	173.143
0.00870964	173.631
0.00875992	174.12
0.00881049	174.61
0.00886135	175.102
0.00891251	175.595
0.00896396	176.09
0.00901571	176.586
0.00906776	177.083
0.00912011	177.582
0.00917276	178.083
0.00922571	178.585
0.00927897	179.088
0.00933254	179.593
0.00938642	180.099
0.00944061	180.607
0.00949511	181.116
0.00954993	181.626
0.00960506	182.138
0.00966051	182.652
0.00971628	183.167
0.00977237	183.683
0.00982879	184.201
0.00988553	184.721
0.0099426	185.242
0.01	185.764
0.0100577	186.288
0.0101158	186.814
0.0101742	187.341
0.0102329	187.869
0.010292	188.399
0.0103514	188.931
0.0104112	189.464
0.0104713	189.999
0.0105317	190.535
0.0105925	191.073
0.0106537	191.612
0.0107152	192.153
0.0107771	192.696
0.0108393	193.24
0.0109018	193.785
0.0109648	194.332
0.0110281	194.881
0.0110917	195.431
0.0111558	195.983
0.0112202	196.537
0.011285	197.092
0.0113501	197.649
0.0114156	198.207
0.0114815	198.767
0.0115478	199.329
0.0116145	199.892
0.0116815	200.457
0.011749	201.023
0.0118168	201.591
0.011885	202.161
0.0119536	202.732
0.0120226	203.305
0.0120921	203.88
0.0121619	204.456
0.0122321	205.034
0.0123027	205.614
0.0123737	206.195
0.0124451	206.779
0.012517	207.363
0.0125893	207.95
0.0126619	208.538
0.012735	209.128
0.0128086	209.719
0.0128825	210.312
0.0129569	210.907
0.0130317	211.504
0.0131069	212.103
0.0131826	212.703
0.0132587	213.305
0.0133352	213.908
0.0134122	214.514
0.0134896	215.121
0.0135675	215.73
0.0136458	216.34
0.0137246	216.953
0.0138038	217.567
0.0138835	218.183
0.0139637	218.801
0.0140443	219.42
0.0141254	220.042
0.0142069	220.665
0.0142889	221.29
0.0143714	221.917
0.0144544	222.545
0.0145378	223.176
0.0146218	223.808
0.0147062	224.442
0.0147911	225.078
0.0148765	225.716
0.0149624	226.356
0.0150487	226.997
0.0151356	227.64
0.015223	228.286
0.0153109	228.933
0.0153993	229.582
0.0154882	230.233
0.0155776	230.885
0.0156675	231.54
0.015758	232.196
0.0158489	232.855
0.0159404	233.515
0.0160325	234.177
0.016125	234.842
0.0162181	235.508
0.0163117	236.176
0.0164059	236.846
0.0165006	237.518
0.0165959	238.192
0.0166917	238.868
0.016788	239.545
0.016885	240.225
0.0169824	240.907
0.0170805	241.591
0.0171791	242.276
0.0172783	242.964
0.017378	243.654
0.0174783	244.346
0.0175792	245.039
0.0176807	245.735
0.0177828	246.433
0.0178855	247.133
0.0179887	247.835
0.0180926	248.538
0.018197	249.244
0.0183021	249.952
0.0184077	250.662
0.018514	251.375
0.0186209	252.089
0.0187284	252.805
0.0188365	253.523
0.0189452	254.244
0.0190546	254.966
0.0191646	255.691
0.0192752	256.418
0.0193865	257.147
0.0194984	257.878
0.019611	258.611
0.0197242	259.346
0.0198381	260.083
0.0199526	260.823
0.0200678	261.565
0.0201837	262.308
0.0203002	263.054
0.0204174	263.803
0.0205353	264.553
0.0206538	265.306
0.020773	266.06
0.020893	266.817
0.0210136	267.576
0.0211349	268.338
0.0212569	269.101
0.0213796	269.867
0.021503	270.635
0.0216272	271.406
0.021752	272.178
0.0218776	272.953
0.0220039	273.73
0.0221309	274.509
0.0222587	275.291
0.0223872	276.075
0.0225165	276.861
0.0226464	277.649
0.0227772	278.44
0.0229087	279.233
0.0230409	280.028
0.0231739	280.826
0.0233077	281.626
0.0234423	282.428
0.0235776	283.233
0.0237137	284.04
0.0238506	284.85
0.0239883	285.661
0.0241268	286.475
0.0242661	287.292
0.0244062	288.111
0.0245471	288.932
0.0246888	289.756
0.0248313	290.582
0.0249747	291.41
0.0251189	292.241
0.0252639	293.075
0.0254097	293.91
0.0255564	294.749
0.025704	295.589
0.0258523	296.432
0.0260016	297.278
0.0261517	298.126
0.0263027	298.977
0.0264545	299.83
0.0266073	300.685
0.0267609	301.543
0.0269153	302.404
0.0270707	303.267
0.027227	304.132
0.0273842	305
0.0275423	305.871
0.0277013	306.744
0.0278612	307.62
0.0280221	308.498
0.0281838	309.379
0.0283465	310.262
0.0285102	311.148
0.0286748	312.037
0.0288403	312.928
0.0290068	313.822
0.0291743	314.719
0.0293427	315.618
0.0295121	316.519
0.0296825	317.424
0.0298538	318.331
0.0300262	319.24
0.0301995	320.153
0.0303739	321.067
0.0305492	321.985
0.0307256	322.905
0.030903	323.828
0.0310814	324.292
0.0312608	324.508
0.0314413	324.727
0.0316228	324.947
0.0318053	325.17
0.031989	325.395
0.0321736	325.622
0.0323594	325.852
0.0325462	326.084
0.0327341	326.317
0.032923	326.553
0.0331131	326.791
0.0333043	327.031
0.0334965	327.273
0.0336899	327.516
0.0338844	327.762
0.03408	328.01
0.0342768	328.26
0.0344747	328.511
0.0346737	328.764
0.0348739	329.02
0.0350752	329.277
0.0352777	329.535
0.0354813	329.796
0.0356862	330.058
0.0358922	330.322
0.0360994	330.588
0.0363078	330.855
0.0365174	331.124
0.0367282	331.395
0.0369403	331.667
0.0371535	331.941
0.037368	332.217
0.0375837	332.494
0.0378007	332.772
0.0380189	333.052
0.0382384	333.334
0.0384592	333.617
0.0386812	333.902
0.0389045	334.188
0.0391291	334.476
0.039355	334.765
0.0395822	335.055
0.0398107	335.347
0.0400405	335.64
0.0402717	335.935
0.0405042	336.231
0.040738	336.528
0.0409732	336.827
0.0412098	337.127
0.0414477	337.429
0.0416869	337.731
0.0419276	338.036
0.0421697	338.341
0.0424131	338.648
0.042658	338.955
0.0429042	339.265
0.0431519	339.575
0.043401	339.887
0.0436516	340.2
0.0439036	340.514
0.044157	340.829
0.044412	341.146
0.0446684	341.464
0.0449262	341.783
0.0451856	342.103
0.0454465	342.425
0.0457088	342.747
0.0459727	343.071
0.0462381	343.396
0.046505	343.722
0.0467735	344.049
0.0470435	344.378
0.0473151	344.707
0.0475883	345.038
0.047863	345.37
0.0481393	345.703
0.0484172	346.037
0.0486968	346.372
0.0489779	346.709
0.0492606	347.046
0.049545	347.385
0.049831	347.725
0.0501187	348.066
0.0504081	348.408
0.0506991	348.751
0.0509918	349.095
0.0512861	349.44
0.0515822	349.787
0.05188	350.134
0.0521795	350.483
0.0524807	350.833
0.0527837	351.183
0.0530884	351.535
0.0533949	351.888
0.0537032	352.242
0.0540132	352.598
0.054325	352.954
0.0546387	353.311
0.0549541	353.67
0.0552713	354.03
0.0555904	354.39
0.0559114	354.752
0.0562341	355.115
0.0565588	355.479
0.0568853	355.844
0.0572137	356.21
0.057544	356.578
0.0578762	356.946
0.0582103	357.316
0.0585464	357.687
0.0588844	358.058
0.0592243	358.431
0.0595662	358.805
0.0599101	359.181
0.060256	359.557
0.0606038	359.934
0.0609537	360.313
0.0613056	360.693
0.0616595	361.073
0.0620155	361.455
0.0623735	361.839
0.0627336	362.223
0.0630957	362.608
0.06346	362.995
0.0638263	363.383
0.0641948	363.772
0.0645654	364.162
0.0649382	364.553
0.0653131	364.946
0.0656901	365.34
0.0660693	365.734
0.0664508	366.131
0.0668344	366.528
0.0672202	366.926
0.0676083	367.326
0.0679986	367.727
0.0683912	368.129
0.068786	368.533
0.0691831	368.937
0.0695825	369.343
0.0699842	369.75
0.0703882	370.159
0.0707946	370.568
0.0712033	370.979
0.0716143	371.391
0.0720278	371.805
0.0724436	372.22
0.0728618	372.636
0.0732825	373.053
0.0737055	373.472
0.074131	373.892
0.074559	374.313
0.0749894	374.736
0.0754223	375.16
0.0758578	375.585
0.0762957	376.012
0.0767361	376.44
0.0771792	376.869
0.0776247	377.3
0.0780728	377.732
0.0785236	378.165
0.0789769	378.6
0.0794328	379.037
0.0798914	379.474
0.0803526	379.914
0.0808165	380.354
0.0812831	380.796
0.0817523	381.24
0.0822243	381.685
0.082699	382.131
0.0831764	382.579
0.0836566	383.028
0.0841395	383.479
0.0846253	383.931
0.0851138	384.385
0.0856052	384.84
0.0860994	385.297
0.0865964	385.756
0.0870964	386.215
0.0875992	386.677
0.0881049	387.14
0.0886135	387.604
0.0891251	388.071
0.0896396	388.538
0.0901571	389.008
0.0906776	389.478
0.0912011	389.951
0.0917276	390.425
0.0922571	390.901
0.0927897	391.378
0.0933254	391.857
0.0938642	392.338
0.0944061	392.82
0.0949511	393.304
0.0954993	393.79
0.0960506	394.277
0.0966051	394.766
0.0971628	395.257
0.0977237	395.75
0.0982879	396.244
0.0988553	396.74
0.099426	397.238
0.1	397.737
0.100577	398.238
0.101158	398.741
0.101742	399.246
0.102329	399.753
0.10292	400.261
0.103514	400.771
0.104112	401.283
0.104713	401.797
0.105317	402.313
0.105925	402.831
0.106537	403.35
0.107152	403.871
0.107771	404.394
0.108393	404.92
0.109018	405.447
0.109648	405.975
0.110281	406.506
0.110917	407.039
0.111558	407.574
0.112202	408.11
0.11285	408.649
0.113501	409.19
0.114156	409.732
0.114815	410.277
0.115478	410.823
0.116145	411.372
0.116815	411.923
0.11749	412.475
0.118168	413.03
0.11885	413.587
0.119536	414.145
0.120226	414.706
0.120921	415.269
0.121619	415.834
0.122321	416.402
0.123027	416.971
0.123737	417.542
0.124451	418.116
0.12517	418.692
0.125893	419.269
0.126619	419.849
0.12735	420.432
0.128086	421.016
0.128825	421.603
0.129569	422.191
0.130317	422.782
0.131069	423.376
0.131826	423.971
0.132587	424.569
0.133352	425.169
0.134122	425.771
0.134896	426.376
0.135675	426.982
0.136458	427.592
0.137246	428.203
0.138038	428.817
0.138835	429.433
0.139637	430.051
0.140443	430.672
0.141254	431.295
0.142069	431.921
0.142889	432.549
0.143714	433.179
0.144544	433.812
0.145378	434.447
0.146218	435.084
0.147062	435.724
0.147911	436.367
0.148765	437.012
0.149624	437.659
0.150487	438.309
0.151356	438.961
0.15223	439.616
0.153109	440.273
0.153993	440.933
0.154882	441.596
0.155776	442.261
0.156675	442.928
0.15758	443.598
0.158489	444.271
0.159404	444.946
0.160325	445.623
0.16125	446.304
0.162181	446.987
0.163117	447.672
0.164059	448.361
0.165006	449.051
0.165959	449.745
0.166917	450.441
0.16788	451.14
0.16885	451.841
0.169824	452.546
0.170805	453.252
0.171791	453.962
0.172783	454.674
0.17378	455.389
0.174783	456.107
0.175792	456.828
0.176807	457.551
0.177828	458.277
0.178855	459.006
0.179887	459.738
0.180926	460.472
0.18197	461.209
0.183021	461.949
0.184077	462.692
0.18514	463.438
0.186209	464.187
0.187284	464.938
0.188365	465.692
0.189452	466.45
0.190546	467.21
0.191646	467.973
0.192752	468.739
0.193865	469.508
0.194984	470.279
0.19611	471.054
0.197242	471.832
0.198381	472.612
0.199526	473.396
0.200678	474.182
0.201837	474.972
0.203002	475.764
0.204174	476.56
0.205353	477.358
0.206538	478.16
0.20773	478.965
0.20893	479.772
0.210136	480.583
0.211349	481.397
0.212569	482.214
0.213796	483.034
0.21503	483.857
0.216272	484.683
0.21752	485.512
0.218776	486.344
0.220039	487.18
0.221309	488.018
0.222587	488.86
0.223872	489.705
0.225165	490.553
0.226464	491.404
0.227772	492.259
0.229087	493.116
0.230409	493.977
0.231739	494.841
0.233077	495.708
0.234423	496.579
0.235776	497.453
0.237137	498.329
0.238506	499.21
0.239883	500.093
0.241268	500.98
0.242661	501.87
0.244062	502.763
0.245471	503.66
0.246888	504.56
0.248313	505.463
0.249747	506.369
0.251189	507.279
0.252639	508.192
0.254097	509.109
0.255564	510.029
0.25704	510.952
0.258523	511.879
0.260016	512.809
0.261517	513.742
0.263027	514.679
0.264545	515.619
0.266073	516.563
0.267609	517.51
0.269153	518.46
0.270707	519.414
0.27227	520.371
0.273842	521.332
0.275423	522.296
0.277013	523.264
0.278612	524.235
0.280221	525.21
0.281838	526.188
0.283465	527.17
0.285102	528.155
0.286748	529.144
0.288403	530.136
0.290068	531.131
0.291743	532.131
0.293427	533.133
0.295121	534.14
0.296825	535.149
0.298538	536.163
0.300262	537.18
0.301995	538.2
0.303739	539.224
0.305492	540.252
0.307256	541.283
0.30903	542.318
0.310814	543.357
0.312608	544.399
0.314413	545.445
0.316228	546.494
0.318053	547.547
0.31989	548.603
0.321736	549.664
0.323594	550.727
0.325462	551.795
0.327341	552.866
0.32923	553.941
0.331131	555.019
0.333043	556.101
0.334965	557.187
0.336899	558.277
0.338844	559.37
0.3408	560.467
0.342768	561.567
0.344747	562.672
0.346737	563.78
0.348739	564.891
0.350752	566.007
0.352777	567.126
0.354813	568.248
0.356862	569.375
0.358922	570.505
0.360994	571.639
0.363078	572.777
0.365174	573.918
0.367282	575.064
0.369403	576.213
0.371535	577.365
0.37368	578.522
0.375837	579.682
0.378007	580.846
0.380189	582.014
0.382384	583.185
0.384592	584.36
0.386812	585.539
0.389045	586.722
0.391291	587.909
0.39355	589.099
0.395822	590.293
0.398107	591.491
0.400405	592.693
0.402717	593.898
0.405042	595.107
0.40738	596.32
0.409732	597.537
0.412098	598.758
0.414477	599.982
0.416869	601.21
0.419276	602.442
0.421697	603.678
0.424131	604.917
0.42658	606.16
0.429042	607.407
0.431519	608.658
0.43401	609.913
0.436516	611.171
0.439036	612.433
0.44157	613.699
0.44412	614.969
0.446684	616.242
0.449262	617.519
0.451856	618.8
0.454465	620.085
0.457088	621.374
0.459727	622.666
0.462381	623.962
0.46505	625.262
0.467735	626.565
0.470435	627.873
0.473151	629.184
0.475883	630.499
0.47863	631.817
0.481393	633.139
0.484172	634.465
0.486968	635.795
0.489779	637.129
0.492606	638.466
0.49545	639.807
0.49831	641.151
0.501187	642.5
0.504081	643.852
0.506991	645.207
0.509918	646.567
0.512861	647.93
0.515822	649.296
0.5188	650.667
0.521795	652.04
0.524807	653.418
0.527837	654.799
0.530884	656.184
0.533949	657.573
0.537032	658.965
0.540132	660.361
0.54325	661.76
0.546387	663.163
0.549541	664.569
0.552713	665.979
0.555904	667.393
0.559114	668.81
0.562341	670.23
0.565588	671.654
0.568853	673.082
0.572137	674.513
0.57544	675.948
0.578762	677.386
0.582103	678.827
0.585464	680.272
0.588844	681.721
0.592243	683.173
0.595662	684.628
0.599101	686.086
0.60256	687.548
0.606038	689.014
0.609537	690.482
0.613056	691.954
