Stopping power dEdx from Ionisation for pi+ Z = 0 in G4_TISSUE_SOFT_ICRP, process name: hIoni
E [MeV]	dEdx [MeV/mm]
0.001	44.7922
0.00100577	44.9213
0.00101158	45.0508
0.00101742	45.1806
0.00102329	45.3109
0.0010292	45.4415
0.00103514	45.5724
0.00104112	45.7038
0.00104713	45.8355
0.00105317	45.9676
0.00105925	46.1001
0.00106537	46.233
0.00107152	46.3663
0.00107771	46.4999
0.00108393	46.634
0.00109018	46.7684
0.00109648	46.9032
0.00110281	47.0384
0.00110917	47.1739
0.00111558	47.3099
0.00112202	47.4463
0.0011285	47.583
0.00113501	47.7202
0.00114156	47.8577
0.00114815	47.9957
0.00115478	48.134
0.00116145	48.2728
0.00116815	48.4119
0.0011749	48.5515
0.00118168	48.6914
0.0011885	48.8317
0.00119536	48.9725
0.00120226	49.1137
0.00120921	49.2552
0.00121619	49.3972
0.00122321	49.5396
0.00123027	49.6824
0.00123737	49.8256
0.00124451	49.9692
0.0012517	50.1132
0.00125893	50.2577
0.00126619	50.4025
0.0012735	50.5478
0.00128086	50.6935
0.00128825	50.8396
0.00129569	50.9862
0.00130317	51.1331
0.00131069	51.2805
0.00131826	51.4283
0.00132587	51.5765
0.00133352	51.7252
0.00134122	51.8743
0.00134896	52.0238
0.00135675	52.1738
0.00136458	52.3242
0.00137246	52.475
0.00138038	52.6262
0.00138835	52.7779
0.00139637	52.93
0.00140443	53.0826
0.00141254	53.2356
0.00142069	53.3891
0.00142889	53.5429
0.00143714	53.6973
0.00144544	53.852
0.00145378	54.0073
0.00146218	54.1629
0.00147062	54.3191
0.00147911	54.4756
0.00148765	54.6326
0.00149624	54.7901
0.00150487	54.9326
0.00151356	55.0703
0.0015223	55.2083
0.00153109	55.3465
0.00153993	55.4851
0.00154882	55.6239
0.00155776	55.763
0.00156675	55.9024
0.0015758	56.0421
0.00158489	56.1821
0.00159404	56.3223
0.00160325	56.4628
0.0016125	56.6036
0.00162181	56.7447
0.00163117	56.886
0.00164059	57.0276
0.00165006	57.1696
0.00165959	57.3117
0.00166917	57.4542
0.0016788	57.5969
0.0016885	57.7399
0.00169824	57.8832
0.00170805	58.0268
0.00171791	58.1706
0.00172783	58.3147
0.0017378	58.4591
0.00174783	58.6037
0.00175792	58.7487
0.00176807	58.8939
0.00177828	59.0393
0.00178855	59.1851
0.00179887	59.3311
0.00180926	59.4774
0.0018197	59.6239
0.00183021	59.7707
0.00184077	59.9178
0.0018514	60.0652
0.00186209	60.2128
0.00187284	60.3607
0.00188365	60.5088
0.00189452	60.6573
0.00190546	60.8059
0.00191646	60.9549
0.00192752	61.1041
0.00193865	61.2536
0.00194984	61.4033
0.0019611	61.5533
0.00197242	61.7035
0.00198381	61.854
0.00199526	62.0048
0.00200678	62.1558
0.00201837	62.3071
0.00203002	62.4586
0.00204174	62.6104
0.00205353	62.7625
0.00206538	62.9148
0.0020773	63.0673
0.0020893	63.2201
0.00210136	63.3732
0.00211349	63.5265
0.00212569	63.68
0.00213796	63.8338
0.0021503	63.9878
0.00216272	64.1421
0.0021752	64.2966
0.00218776	64.4514
0.00220039	64.6064
0.00221309	64.7616
0.00222587	64.9171
0.00223872	65.0728
0.00225165	65.2288
0.00226464	65.3849
0.00227772	65.5414
0.00229087	65.698
0.00230409	65.8549
0.00231739	66.012
0.00233077	66.1693
0.00234423	66.3269
0.00235776	66.4847
0.00237137	66.6427
0.00238506	66.8009
0.00239883	66.9594
0.00241268	67.1181
0.00242661	67.2769
0.00244062	67.436
0.00245471	67.5954
0.00246888	67.7549
0.00248313	67.9146
0.00249747	68.0746
0.00251189	68.2347
0.00252639	68.3951
0.00254097	68.5556
0.00255564	68.7164
0.0025704	68.8774
0.00258523	69.0385
0.00260016	69.1999
0.00261517	69.3614
0.00263027	69.5232
0.00264545	69.6851
0.00266073	69.8472
0.00267609	70.0096
0.00269153	70.172
0.00270707	70.3347
0.0027227	70.4976
0.00273842	70.6606
0.00275423	70.8238
0.00277013	70.9872
0.00278612	71.1507
0.00280221	71.3145
0.00281838	71.4784
0.00283465	71.6424
0.00285102	71.8066
0.00286748	71.971
0.00288403	72.1355
0.00290068	72.3002
0.00291743	72.465
0.00293427	72.63
0.00295121	72.7952
0.00296825	72.9604
0.00298538	73.1258
0.00300262	73.2914
0.00301995	73.4571
0.00303739	73.6229
0.00305492	73.7889
0.00307256	73.955
0.0030903	74.1212
0.00310814	74.2875
0.00312608	74.454
0.00314413	74.6205
0.00316228	74.7872
0.00318053	74.954
0.0031989	75.1209
0.00321736	75.2879
0.00323594	75.455
0.00325462	75.6222
0.00327341	75.7895
0.0032923	75.9569
0.00331131	76.1244
0.00333043	76.292
0.00334965	76.4596
0.00336899	76.6273
0.00338844	76.7951
0.003408	76.963
0.00342768	77.1309
0.00344747	77.2989
0.00346737	77.467
0.00348739	77.6351
0.00350752	77.8033
0.00352777	77.9715
0.00354813	78.1398
0.00356862	78.3081
0.00358922	78.4765
0.00360994	78.6449
0.00363078	78.8133
0.00365174	78.9817
0.00367282	79.1502
0.00369403	79.3187
0.00371535	79.4872
0.0037368	79.6557
0.00375837	79.8243
0.00378007	79.9928
0.00380189	80.1613
0.00382384	80.3298
0.00384592	80.4983
0.00386812	80.6668
0.00389045	80.8353
0.00391291	81.0038
0.0039355	81.1722
0.00395822	81.3406
0.00398107	81.5089
0.00400405	81.6773
0.00402717	81.8455
0.00405042	82.0137
0.0040738	82.1819
0.00409732	82.35
0.00412098	82.5181
0.00414477	82.686
0.00416869	82.8539
0.00419276	83.0217
0.00421697	83.1895
0.00424131	83.3571
0.0042658	83.5247
0.00429042	83.6921
0.00431519	83.8595
0.0043401	84.0267
0.00436516	84.1938
0.00439036	84.3608
0.0044157	84.5277
0.0044412	84.6944
0.00446684	84.861
0.00449262	85.0275
0.00451856	85.1938
0.00454465	85.36
0.00457088	85.526
0.00459727	85.6918
0.00462381	85.8575
0.0046505	86.023
0.00467735	86.1883
0.00470435	86.3534
0.00473151	86.5183
0.00475883	86.6831
0.0047863	86.8476
0.00481393	87.0119
0.00484172	87.176
0.00486968	87.3399
0.00489779	87.5036
0.00492606	87.667
0.0049545	87.8302
0.0049831	87.9931
0.00501187	88.1558
0.00504081	88.3182
0.00506991	88.4803
0.00509918	88.6422
0.00512861	88.8038
0.00515822	88.9651
0.005188	89.1261
0.00521795	89.2868
0.00524807	89.4473
0.00527837	89.6074
0.00530884	89.7671
0.00533949	89.9266
0.00537032	90.0857
0.00540132	90.2445
0.0054325	90.403
0.00546387	90.5611
0.00549541	90.7188
0.00552713	90.8762
0.00555904	91.0332
0.00559114	91.1898
0.00562341	91.346
0.00565588	91.5018
0.00568853	91.6573
0.00572137	91.8123
0.0057544	91.9669
0.00578762	92.1211
0.00582103	92.2749
0.00585464	92.4282
0.00588844	92.5811
0.00592243	92.7335
0.00595662	92.8855
0.00599101	93.037
0.0060256	93.1707
0.00606038	93.3025
0.00609537	93.4335
0.00613056	93.5639
0.00616595	93.6935
0.00620155	93.8224
0.00623735	93.9505
0.00627336	94.0779
0.00630957	94.2045
0.006346	94.3304
0.00638263	94.4555
0.00641948	94.5798
0.00645654	94.7033
0.00649382	94.826
0.00653131	94.9478
0.00656901	95.0688
0.00660693	95.189
0.00664508	95.3084
0.00668344	95.4268
0.00672202	95.5444
0.00676083	95.6612
0.00679986	95.777
0.00683912	95.8919
0.0068786	96.006
0.00691831	96.1191
0.00695825	96.2312
0.00699842	96.3425
0.00703882	96.4527
0.00707946	96.562
0.00712033	96.6704
0.00716143	96.7777
0.00720278	96.8841
0.00724436	96.9895
0.00728618	97.0938
0.00732825	97.1971
0.00737055	97.2994
0.0074131	97.4007
0.0074559	97.5008
0.00749894	97.6
0.00754223	97.698
0.00758578	97.795
0.00762957	97.8908
0.00767361	97.9856
0.00771792	98.0792
0.00776247	98.1717
0.00780728	98.2631
0.00785236	98.3533
0.00789769	98.4424
0.00794328	98.5303
0.00798914	98.617
0.00803526	98.7025
0.00808165	98.7868
0.00812831	98.8699
0.00817523	98.9518
0.00822243	99.0325
0.0082699	99.1119
0.00831764	99.1901
0.00836566	99.267
0.00841395	99.3426
0.00846253	99.4169
0.00851138	99.49
0.00856052	99.5617
0.00860994	99.6322
0.00865964	99.7013
0.00870964	99.7691
0.00875992	99.8355
0.00881049	99.9006
0.00886135	99.9643
0.00891251	100.027
0.00896396	100.088
0.00901571	100.147
0.00906776	100.205
0.00912011	100.262
0.00917276	100.318
0.00922571	100.371
0.00927897	100.424
0.00933254	100.475
0.00938642	100.524
0.00944061	100.573
0.00949511	100.619
0.00954993	100.664
0.00960506	100.708
0.00966051	100.75
0.00971628	100.791
0.00977237	100.83
0.00982879	100.867
0.00988553	100.903
0.0099426	100.938
0.01	100.971
0.0100577	101.002
0.0101158	101.032
0.0101742	101.06
0.0102329	101.087
0.010292	101.112
0.0103514	101.135
0.0104112	101.157
0.0104713	101.177
0.0105317	101.196
0.0105925	101.213
0.0106537	101.228
0.0107152	101.242
0.0107771	101.254
0.0108393	101.264
0.0109018	101.273
0.0109648	101.28
0.0110281	101.285
0.0110917	101.288
0.0111558	101.29
0.0112202	101.29
0.011285	101.289
0.0113501	101.286
0.0114156	101.281
0.0114815	101.274
0.0115478	101.266
0.0116145	101.255
0.0116815	101.243
0.011749	101.23
0.0118168	101.214
0.011885	101.197
0.0119536	101.178
0.0120226	101.157
0.0120921	101.135
0.0121619	101.111
0.0122321	101.085
0.0123027	101.057
0.0123737	101.027
0.0124451	100.996
0.012517	100.962
0.0125893	100.927
0.0126619	100.89
0.012735	100.852
0.0128086	100.811
0.0128825	100.769
0.0129569	100.725
0.0130317	100.679
0.0131069	100.631
0.0131826	100.582
0.0132587	100.53
0.0133352	100.477
0.0134122	100.422
0.0134896	100.365
0.0135675	100.307
0.0136458	100.246
0.0137246	100.184
0.0138038	100.12
0.0138835	100.054
0.0139637	99.9857
0.0140443	99.916
0.0141254	99.8445
0.0142069	99.7711
0.0142889	99.696
0.0143714	99.619
0.0144544	99.5402
0.0145378	99.4595
0.0146218	99.377
0.0147062	99.2928
0.0147911	99.2066
0.0148765	99.1187
0.0149624	99.029
0.0150487	98.9374
0.0151356	98.844
0.015223	98.7488
0.0153109	98.6519
0.0153993	98.5531
0.0154882	98.4525
0.0155776	98.3501
0.0156675	98.246
0.015758	98.14
0.0158489	98.0323
0.0159404	97.9228
0.0160325	97.8115
0.016125	97.6985
0.0162181	97.5837
0.0163117	97.4671
0.0164059	97.3489
0.0165006	97.2288
0.0165959	97.107
0.0166917	96.9835
0.016788	96.8583
0.016885	96.7314
0.0169824	96.6027
0.0170805	96.4724
0.0171791	96.3403
0.0172783	96.2066
0.017378	96.0712
0.0174783	95.9341
0.0175792	95.7953
0.0176807	95.6549
0.0177828	95.5129
0.0178855	95.3692
0.0179887	95.2239
0.0180926	95.077
0.018197	94.9285
0.0183021	94.7784
0.0184077	94.6266
0.018514	94.4734
0.0186209	94.3185
0.0187284	94.1621
0.0188365	94.0041
0.0189452	93.8446
0.0190546	93.6836
0.0191646	93.5211
0.0192752	93.357
0.0193865	93.1915
0.0194984	93.0245
0.019611	92.8561
0.0197242	92.6861
0.0198381	92.5148
0.0199526	92.342
0.0200678	92.1678
0.0201837	91.9922
0.0203002	91.8152
0.0204174	91.6368
0.0205353	91.4571
0.0206538	91.276
0.020773	91.0935
0.020893	90.9098
0.0210136	90.7247
0.0211349	90.5384
0.0212569	90.3508
0.0213796	90.1619
0.021503	89.9717
0.0216272	89.7803
0.021752	89.5877
0.0218776	89.3939
0.0220039	89.1989
0.0221309	89.0027
0.0222587	88.8054
0.0223872	88.6069
0.0225165	88.4072
0.0226464	88.2065
0.0227772	88.0047
0.0229087	87.8017
0.0230409	87.5977
0.0231739	87.3927
0.0233077	87.1866
0.0234423	86.9795
0.0235776	86.7714
0.0237137	86.5623
0.0238506	86.3523
0.0239883	86.1412
0.0241268	85.9293
0.0242661	85.7164
0.0244062	85.5026
0.0245471	85.288
0.0246888	85.0724
0.0248313	84.856
0.0249747	84.6388
0.0251189	84.4207
0.0252639	84.2019
0.0254097	83.9822
0.0255564	83.7618
0.025704	83.5406
0.0258523	83.3187
0.0260016	83.0961
0.0261517	82.8728
0.0263027	82.6488
0.0264545	82.4241
0.0266073	82.1988
0.0267609	81.9728
0.0269153	81.7462
0.0270707	81.519
0.027227	81.2913
0.0273842	81.0629
0.0275423	80.834
0.0277013	80.6046
0.0278612	80.3747
0.0280221	80.1443
0.0281838	79.9134
0.0283465	79.682
0.0285102	79.4502
0.0286748	79.2179
0.0288403	78.9853
0.0290068	78.7522
0.0291743	78.5188
0.0293427	78.285
0.0295121	78.0508
0.0296825	77.8163
0.0298538	77.5815
0.0300262	77.3464
0.0301995	77.111
0.0303739	76.8754
0.0305492	76.6395
0.0307256	76.4033
0.030903	76.167
0.0310814	75.9304
0.0312608	75.6937
0.0314413	75.4567
0.0316228	75.2197
0.0318053	74.9825
0.031989	74.7451
0.0321736	74.5077
0.0323594	74.2701
0.0325462	74.0325
0.0327341	73.7948
0.032923	73.557
0.0331131	73.3192
0.0333043	73.0814
0.0334965	72.8436
0.0336899	72.6058
0.0338844	72.368
0.03408	72.1302
0.0342768	71.8925
0.0344747	71.6549
0.0346737	71.4173
0.0348739	71.1798
0.0350752	70.9424
0.0352777	70.7052
0.0354813	70.468
0.0356862	70.231
0.0358922	69.9942
0.0360994	69.7575
0.0363078	69.521
0.0365174	69.2846
0.0367282	69.0485
0.0369403	68.8126
0.0371535	68.5769
0.037368	68.3415
0.0375837	68.1063
0.0378007	67.8714
0.0380189	67.6367
0.0382384	67.4023
0.0384592	67.1682
0.0386812	66.9344
0.0389045	66.7009
0.0391291	66.4678
0.039355	66.235
0.0395822	66.0025
0.0398107	65.7704
0.0400405	65.5386
0.0402717	65.3072
0.0405042	65.0762
0.040738	64.8456
0.0409732	64.6154
0.0412098	64.3856
0.0414477	64.1562
0.0416869	63.9272
0.0419276	63.6987
0.0421697	63.4706
0.0424131	63.2429
0.042658	63.0157
0.0429042	62.789
0.0431519	62.5628
0.043401	62.337
0.0436516	62.1117
0.0439036	61.8869
0.044157	61.6626
0.044412	61.4389
0.0446684	61.2156
0.0449262	60.9929
0.0451856	60.7706
0.0454465	60.549
0.0457088	60.3278
0.0459727	60.1072
0.0462381	59.8872
0.046505	59.6677
0.0467735	59.4487
0.0470435	59.2304
0.0473151	59.0126
0.0475883	58.7953
0.047863	58.5787
0.0481393	58.3626
0.0484172	58.1472
0.0486968	57.9323
0.0489779	57.718
0.0492606	57.5043
0.049545	57.2912
0.049831	57.0788
0.0501187	56.8669
0.0504081	56.6557
0.0506991	56.4451
0.0509918	56.2351
0.0512861	56.0257
0.0515822	55.817
0.05188	55.6088
0.0521795	55.4014
0.0524807	55.1945
0.0527837	54.9883
0.0530884	54.7828
0.0533949	54.5778
0.0537032	54.3736
0.0540132	54.1699
0.054325	53.9669
0.0546387	53.7646
0.0549541	53.5629
0.0552713	53.3619
0.0555904	53.1615
0.0559114	52.9618
0.0562341	52.7627
0.0565588	52.5643
0.0568853	52.3666
0.0572137	52.1695
0.057544	51.9731
0.0578762	51.7773
0.0582103	51.5822
0.0585464	51.3878
0.0588844	51.194
0.0592243	51.0009
0.0595662	50.8084
0.0599101	50.6167
0.060256	50.4255
0.0606038	50.2351
0.0609537	50.0453
0.0613056	49.8561
0.0616595	49.6676
0.0620155	49.4798
0.0623735	49.2927
0.0627336	49.1062
0.0630957	48.9204
0.06346	48.7352
0.0638263	48.5507
0.0641948	48.3668
0.0645654	48.1836
0.0649382	48.0011
0.0653131	47.8192
0.0656901	47.638
0.0660693	47.4574
0.0664508	47.2775
0.0668344	47.0982
0.0672202	46.9196
0.0676083	46.7416
0.0679986	46.5643
0.0683912	46.3876
0.068786	46.2116
0.0691831	46.0362
0.0695825	45.8614
0.0699842	45.6873
0.0703882	45.5138
0.0707946	45.341
0.0712033	45.1688
0.0716143	44.9972
0.0720278	44.8263
0.0724436	44.656
0.0728618	44.4863
0.0732825	44.3172
0.0737055	44.1488
0.074131	43.981
0.074559	43.8138
0.0749894	43.6472
0.0754223	43.4812
0.0758578	43.3159
0.0762957	43.1512
0.0767361	42.987
0.0771792	42.8235
0.0776247	42.6606
0.0780728	42.4983
0.0785236	42.3366
0.0789769	42.1755
0.0794328	42.015
0.0798914	41.8551
0.0803526	41.6957
0.0808165	41.537
0.0812831	41.3789
0.0817523	41.2213
0.0822243	41.0643
0.082699	40.9079
0.0831764	40.7521
0.0836566	40.5969
0.0841395	40.4422
0.0846253	40.2881
0.0851138	40.1346
0.0856052	39.9816
0.0860994	39.8292
0.0865964	39.6774
0.0870964	39.5261
0.0875992	39.3754
0.0881049	39.2252
0.0886135	39.0756
0.0891251	38.9266
0.0896396	38.778
0.0901571	38.6301
0.0906776	38.4827
0.0912011	38.3358
0.0917276	38.1894
0.0922571	38.0436
0.0927897	37.8983
0.0933254	37.7536
0.0938642	37.6094
0.0944061	37.4657
0.0949511	37.3225
0.0954993	37.1799
0.0960506	37.0378
0.0966051	36.8962
0.0971628	36.7551
0.0977237	36.6145
0.0982879	36.4745
0.0988553	36.3349
0.099426	36.1959
0.1	36.0573
0.100577	35.9193
0.101158	35.7817
0.101742	35.6447
0.102329	35.5081
0.10292	35.3721
0.103514	35.2365
0.104112	35.1014
0.104713	34.9668
0.105317	34.8327
0.105925	34.6991
0.106537	34.5659
0.107152	34.4332
0.107771	34.301
0.108393	34.1693
0.109018	34.038
0.109648	33.9073
0.110281	33.7769
0.110917	33.6471
0.111558	33.5177
0.112202	33.3887
0.11285	33.2603
0.113501	33.1322
0.114156	33.0047
0.114815	32.8776
0.115478	32.7509
0.116145	32.6247
0.116815	32.4989
0.11749	32.3736
0.118168	32.2487
0.11885	32.1243
0.119536	32.0002
0.120226	31.8767
0.120921	31.7535
0.121619	31.6308
0.122321	31.5086
0.123027	31.3867
0.123737	31.2653
0.124451	31.1443
0.12517	31.0238
0.125893	30.9036
0.126619	30.7839
0.12735	30.6646
0.128086	30.5457
0.128825	30.4272
0.129569	30.3092
0.130317	30.1915
0.131069	30.0743
0.131826	29.9575
0.132587	29.841
0.133352	29.725
0.134122	29.6094
0.134896	29.4942
0.135675	29.3794
0.136458	29.265
0.137246	29.1509
0.138038	29.0373
0.138835	28.9241
0.139637	28.8112
0.140443	28.6988
0.141254	28.5867
0.142069	28.4751
0.142889	28.3638
0.143714	28.2529
0.144544	28.1423
0.145378	28.0322
0.146218	27.9224
0.147062	27.8131
0.147911	27.7041
0.148765	27.5954
0.149624	27.4872
0.150487	27.3793
0.151356	27.2718
0.15223	27.1647
0.153109	27.0579
0.153993	26.9515
0.154882	26.8454
0.155776	26.7398
0.156675	26.6345
0.15758	26.5295
0.158489	26.4249
0.159404	26.3207
0.160325	26.2168
0.16125	26.1133
0.162181	26.0102
0.163117	25.9074
0.164059	25.8049
0.165006	25.7028
0.165959	25.6011
0.166917	25.4997
0.16788	25.3986
0.16885	25.2979
0.169824	25.1976
0.170805	25.0976
0.171791	24.9979
0.172783	24.8986
0.17378	24.7996
0.174783	24.701
0.175792	24.6027
0.176807	24.5047
0.177828	24.4071
0.178855	24.3098
0.179887	24.2128
0.180926	24.1162
0.18197	24.0199
0.183021	23.9239
0.184077	23.8283
0.18514	23.733
0.186209	23.638
0.187284	23.5434
0.188365	23.4491
0.189452	23.3551
0.190546	23.2614
0.191646	23.1681
0.192752	23.0751
0.193865	22.9823
0.194984	22.89
0.19611	22.7979
0.197242	22.7062
0.198381	22.6147
0.199526	22.5236
0.200678	22.4328
0.201837	22.3423
0.203002	22.2522
0.204174	22.1623
0.205353	22.0728
0.206538	21.9835
0.20773	21.8946
0.20893	21.806
0.210136	21.7177
0.211349	21.6297
0.212569	21.542
0.213796	21.4546
0.21503	21.3675
0.216272	21.2807
0.21752	21.1942
0.218776	21.1081
0.220039	21.0222
0.221309	20.9366
0.222587	20.8513
0.223872	20.7663
0.225165	20.6817
0.226464	20.5973
0.227772	20.5132
0.229087	20.4294
0.230409	20.3459
0.231739	20.2627
0.233077	20.1797
0.234423	20.0971
0.235776	20.0148
0.237137	19.9327
0.238506	19.851
0.239883	19.7695
0.241268	19.6883
0.242661	19.6074
0.244062	19.5268
0.245471	19.4465
0.246888	19.3664
0.248313	19.2867
0.249747	19.2072
0.251189	19.128
0.252639	19.0491
0.254097	18.9704
0.255564	18.8921
0.25704	18.814
0.258523	18.7362
0.260016	18.6587
0.261517	18.5814
0.263027	18.5044
0.264545	18.4277
0.266073	18.3513
0.267609	18.2752
0.269153	18.1993
0.270707	18.1237
0.27227	18.0483
0.273842	17.9733
0.275423	17.8985
0.277013	17.824
0.278612	17.7497
0.280221	17.6757
0.281838	17.602
0.283465	17.5285
0.285102	17.4553
0.286748	17.3824
0.288403	17.3097
0.290068	17.2373
0.291743	17.1652
0.293427	17.0933
0.295121	17.0217
0.296825	16.9503
0.298538	16.8771
0.300262	16.8028
0.301995	16.7288
0.303739	16.6552
0.305492	16.5818
0.307256	16.5087
0.30903	16.436
0.310814	16.3645
0.312608	16.2923
0.314413	16.2205
0.316228	16.1489
0.318053	16.0776
0.31989	16.0066
0.321736	15.9359
0.323594	15.8655
0.325462	15.7954
0.327341	15.7256
0.32923	15.6561
0.331131	15.5868
0.333043	15.5199
0.334965	15.4519
0.336899	15.3835
0.338844	15.3153
0.3408	15.2475
0.342768	15.1799
0.344747	15.1127
0.346737	15.0457
0.348739	14.979
0.350752	14.9125
0.352777	14.8464
0.354813	14.7805
0.356862	14.7149
0.358922	14.6495
0.360994	14.5845
0.363078	14.5197
0.365174	14.4636
0.367282	14.3993
0.369403	14.3351
0.371535	14.2713
0.37368	14.1793
0.375837	14.1156
0.378007	14.0548
0.380189	13.9916
0.382384	13.9287
0.384592	13.866
0.386812	13.8037
0.389045	13.7417
0.391291	13.6799
0.39355	13.6184
0.395822	13.5571
0.398107	13.4961
0.400405	13.4354
0.402717	13.3749
0.405042	13.3146
0.40738	13.2546
0.409732	13.1949
0.412098	13.1354
0.414477	13.0762
0.416869	13.0172
0.419276	12.9585
0.421697	12.9
0.424131	12.8418
0.42658	12.7838
0.429042	12.726
0.431519	12.6685
0.43401	12.6113
0.436516	12.5542
0.439036	12.4975
0.44157	12.4409
0.44412	12.3924
0.446684	12.3363
0.449262	12.2805
0.451856	12.2248
0.454465	12.1694
0.457088	12.1143
0.459727	12.0594
0.462381	12.0047
0.46505	11.9502
0.467735	11.896
0.470435	11.842
0.473151	11.7882
0.475883	11.7347
0.47863	11.6814
0.481393	11.6283
0.484172	11.5754
0.486968	11.5228
0.489779	11.4704
0.492606	11.4182
0.49545	11.3663
0.49831	11.3145
0.501187	11.263
0.504081	11.2122
0.506991	11.1611
0.509918	11.1103
0.512861	11.0596
0.515822	11.0092
0.5188	10.959
0.521795	10.909
0.524807	10.8601
0.527837	10.8116
0.530884	10.7634
0.533949	10.7153
0.537032	10.6675
0.540132	10.6198
0.54325	10.5723
0.546387	10.5251
0.549541	10.478
0.552713	10.4311
0.555904	10.3844
0.559114	10.3379
0.562341	10.2916
0.565588	10.2454
0.568853	10.1995
0.572137	10.1537
0.57544	10.1082
0.578762	10.0628
0.582103	10.0176
0.585464	9.97257
0.588844	9.92775
0.592243	9.88312
0.595662	9.83867
0.599101	9.7944
0.60256	9.75032
0.606038	9.70641
0.609537	9.66537
0.613056	9.62178
