Stopping power dEdx from Ionisation for proton Z = 1 in G4_Si, process name: hIoni
E [MeV]	dEdx [MeV/mm]
0.001	24.465
0.00100577	24.5263
0.00101158	24.588
0.00101742	24.6501
0.00102329	24.7127
0.0010292	24.7757
0.00103514	24.8392
0.00104112	24.9031
0.00104713	24.9674
0.00105317	25.0322
0.00105925	25.0975
0.00106537	25.1632
0.00107152	25.2293
0.00107771	25.296
0.00108393	25.363
0.00109018	25.4306
0.00109648	25.4986
0.00110281	25.5671
0.00110917	25.636
0.00111558	25.7054
0.00112202	25.7753
0.0011285	25.8457
0.00113501	25.9165
0.00114156	25.9879
0.00114815	26.0597
0.00115478	26.132
0.00116145	26.2048
0.00116815	26.2781
0.0011749	26.3519
0.00118168	26.4261
0.0011885	26.5009
0.00119536	26.5762
0.00120226	26.6519
0.00120921	26.7282
0.00121619	26.805
0.00122321	26.8823
0.00123027	26.9601
0.00123737	27.0384
0.00124451	27.1173
0.0012517	27.1966
0.00125893	27.2765
0.00126619	27.3569
0.0012735	27.4378
0.00128086	27.5192
0.00128825	27.6012
0.00129569	27.6837
0.00130317	27.7667
0.00131069	27.8502
0.00131826	27.9343
0.00132587	28.0189
0.00133352	28.1041
0.00134122	28.1898
0.00134896	28.276
0.00135675	28.3628
0.00136458	28.4501
0.00137246	28.5379
0.00138038	28.6263
0.00138835	28.7153
0.00139637	28.8048
0.00140443	28.8948
0.00141254	28.9854
0.00142069	29.0765
0.00142889	29.1682
0.00143714	29.2605
0.00144544	29.3533
0.00145378	29.4466
0.00146218	29.5405
0.00147062	29.635
0.00147911	29.73
0.00148765	29.8255
0.00149624	29.9217
0.00150487	30.0099
0.00151356	30.0922
0.0015223	30.1749
0.00153109	30.2581
0.00153993	30.3418
0.00154882	30.4259
0.00155776	30.5105
0.00156675	30.5956
0.0015758	30.6811
0.00158489	30.7671
0.00159404	30.8536
0.00160325	30.9405
0.0016125	31.0279
0.00162181	31.1157
0.00163117	31.204
0.00164059	31.2928
0.00165006	31.382
0.00165959	31.4717
0.00166917	31.5618
0.0016788	31.6523
0.0016885	31.7433
0.00169824	31.8348
0.00170805	31.9267
0.00171791	32.019
0.00172783	32.1117
0.0017378	32.2049
0.00174783	32.2985
0.00175792	32.3925
0.00176807	32.487
0.00177828	32.5819
0.00178855	32.6771
0.00179887	32.7728
0.00180926	32.8689
0.0018197	32.9654
0.00183021	33.0622
0.00184077	33.1595
0.0018514	33.2571
0.00186209	33.3552
0.00187284	33.4535
0.00188365	33.5523
0.00189452	33.6514
0.00190546	33.7509
0.00191646	33.8507
0.00192752	33.9508
0.00193865	34.0513
0.00194984	34.1521
0.0019611	34.2532
0.00197242	34.3546
0.00198381	34.4564
0.00199526	34.5584
0.00200678	34.6592
0.00201837	34.7593
0.00203002	34.8596
0.00204174	34.9603
0.00205353	35.0611
0.00206538	35.1623
0.0020773	35.2637
0.0020893	35.3654
0.00210136	35.4673
0.00211349	35.5696
0.00212569	35.6721
0.00213796	35.7748
0.0021503	35.8779
0.00216272	35.9812
0.0021752	36.0848
0.00218776	36.1886
0.00220039	36.2928
0.00221309	36.3972
0.00222587	36.5019
0.00223872	36.6069
0.00225165	36.7122
0.00226464	36.8178
0.00227772	36.9237
0.00229087	37.0298
0.00230409	37.1363
0.00231739	37.243
0.00233077	37.35
0.00234423	37.4574
0.00235776	37.565
0.00237137	37.6729
0.00238506	37.7812
0.00239883	37.8897
0.00241268	37.9986
0.00242661	38.1078
0.00244062	38.2173
0.00245471	38.3271
0.00246888	38.4372
0.00248313	38.5477
0.00249747	38.6585
0.00251189	38.7694
0.00252639	38.8807
0.00254097	38.9922
0.00255564	39.1041
0.0025704	39.2164
0.00258523	39.329
0.00260016	39.4419
0.00261517	39.5552
0.00263027	39.6688
0.00264545	39.7827
0.00266073	39.897
0.00267609	40.0116
0.00269153	40.1265
0.00270707	40.2419
0.0027227	40.3575
0.00273842	40.4735
0.00275423	40.5899
0.00277013	40.7066
0.00278612	40.8236
0.00280221	40.941
0.00281838	41.0588
0.00283465	41.1769
0.00285102	41.2953
0.00286748	41.4142
0.00288403	41.5333
0.00290068	41.6529
0.00291743	41.7728
0.00293427	41.8931
0.00295121	42.0137
0.00296825	42.1347
0.00298538	42.2561
0.00300262	42.3779
0.00301995	42.5001
0.00303739	42.6226
0.00305492	42.7456
0.00307256	42.8689
0.0030903	42.9926
0.00310814	43.1166
0.00312608	43.2411
0.00314413	43.3659
0.00316228	43.4911
0.00318053	43.6167
0.0031989	43.7427
0.00321736	43.869
0.00323594	43.9957
0.00325462	44.1228
0.00327341	44.2503
0.0032923	44.3781
0.00331131	44.5064
0.00333043	44.635
0.00334965	44.764
0.00336899	44.8934
0.00338844	45.0231
0.003408	45.1533
0.00342768	45.2838
0.00344747	45.4147
0.00346737	45.546
0.00348739	45.6777
0.00350752	45.8097
0.00352777	45.9422
0.00354813	46.075
0.00356862	46.2082
0.00358922	46.3418
0.00360994	46.4758
0.00363078	46.6102
0.00365174	46.7449
0.00367282	46.8801
0.00369403	47.0156
0.00371535	47.1516
0.0037368	47.2879
0.00375837	47.4246
0.00378007	47.5617
0.00380189	47.6992
0.00382384	47.8372
0.00384592	47.9755
0.00386812	48.1142
0.00389045	48.2533
0.00391291	48.3928
0.0039355	48.5327
0.00395822	48.673
0.00398107	48.8137
0.00400405	48.9548
0.00402717	49.0961
0.00405042	49.2378
0.0040738	49.3799
0.00409732	49.5225
0.00412098	49.6654
0.00414477	49.8087
0.00416869	49.9525
0.00419276	50.0966
0.00421697	50.2412
0.00424131	50.3862
0.0042658	50.5316
0.00429042	50.6774
0.00431519	50.8236
0.0043401	50.9703
0.00436516	51.1173
0.00439036	51.2648
0.0044157	51.4127
0.0044412	51.561
0.00446684	51.7097
0.00449262	51.8588
0.00451856	52.0083
0.00454465	52.1583
0.00457088	52.3087
0.00459727	52.4595
0.00462381	52.6108
0.0046505	52.7624
0.00467735	52.9145
0.00470435	53.067
0.00473151	53.22
0.00475883	53.3733
0.0047863	53.5271
0.00481393	53.6814
0.00484172	53.836
0.00486968	53.9911
0.00489779	54.1467
0.00492606	54.3027
0.0049545	54.4591
0.0049831	54.616
0.00501187	54.7733
0.00504081	54.9312
0.00506991	55.0895
0.00509918	55.2482
0.00512861	55.4074
0.00515822	55.5671
0.005188	55.7272
0.00521795	55.8877
0.00524807	56.0488
0.00527837	56.2102
0.00530884	56.3722
0.00533949	56.5346
0.00537032	56.6974
0.00540132	56.8608
0.0054325	57.0246
0.00546387	57.1888
0.00549541	57.3536
0.00552713	57.5188
0.00555904	57.6845
0.00559114	57.8506
0.00562341	58.0173
0.00565588	58.1844
0.00568853	58.352
0.00572137	58.5201
0.0057544	58.6887
0.00578762	58.8577
0.00582103	59.0273
0.00585464	59.1974
0.00588844	59.3679
0.00592243	59.539
0.00595662	59.7106
0.00599101	59.8827
0.0060256	60.0553
0.00606038	60.2284
0.00609537	60.4021
0.00613056	60.5762
0.00616595	60.7509
0.00620155	60.9261
0.00623735	61.1018
0.00627336	61.278
0.00630957	61.4547
0.006346	61.6319
0.00638263	61.8096
0.00641948	61.9879
0.00645654	62.1666
0.00649382	62.3458
0.00653131	62.5255
0.00656901	62.7057
0.00660693	62.8864
0.00664508	63.0676
0.00668344	63.2493
0.00672202	63.4315
0.00676083	63.6141
0.00679986	63.7973
0.00683912	63.9809
0.0068786	64.165
0.00691831	64.3495
0.00695825	64.5346
0.00699842	64.7201
0.00703882	64.9061
0.00707946	65.0926
0.00712033	65.2795
0.00716143	65.467
0.00720278	65.6549
0.00724436	65.8433
0.00728618	66.0323
0.00732825	66.2217
0.00737055	66.4117
0.0074131	66.6022
0.0074559	66.7933
0.00749894	66.9848
0.00754223	67.177
0.00758578	67.3697
0.00762957	67.5629
0.00767361	67.7568
0.00771792	67.9512
0.00776247	68.1463
0.00780728	68.3419
0.00785236	68.5382
0.00789769	68.7351
0.00794328	68.9326
0.00798914	69.1308
0.00803526	69.3297
0.00808165	69.5292
0.00812831	69.7295
0.00817523	69.9304
0.00822243	70.132
0.0082699	70.3343
0.00831764	70.5373
0.00836566	70.7411
0.00841395	70.9456
0.00846253	71.1508
0.00851138	71.3568
0.00856052	71.5635
0.00860994	71.771
0.00865964	71.9793
0.00870964	72.1884
0.00875992	72.3982
0.00881049	72.6089
0.00886135	72.8204
0.00891251	73.0327
0.00896396	73.2459
0.00901571	73.4599
0.00906776	73.6748
0.00912011	73.8904
0.00917276	74.1067
0.00922571	74.3235
0.00927897	74.5408
0.00933254	74.7585
0.00938642	74.9764
0.00944061	75.1944
0.00949511	75.4125
0.00954993	75.6305
0.00960506	75.8483
0.00966051	76.0657
0.00971628	76.2827
0.00977237	76.4991
0.00982879	76.7148
0.00988553	76.9296
0.0099426	77.1434
0.01	77.356
0.0100577	77.5674
0.0101158	77.7775
0.0101742	77.9864
0.0102329	78.1939
0.010292	78.4003
0.0103514	78.6055
0.0104112	78.8094
0.0104713	79.0123
0.0105317	79.214
0.0105925	79.4147
0.0106537	79.6143
0.0107152	79.8129
0.0107771	80.0106
0.0108393	80.2073
0.0109018	80.4032
0.0109648	80.5982
0.0110281	80.7925
0.0110917	80.986
0.0111558	81.1789
0.0112202	81.3711
0.011285	81.5628
0.0113501	81.7539
0.0114156	81.9447
0.0114815	82.135
0.0115478	82.325
0.0116145	82.5148
0.0116815	82.7045
0.011749	82.894
0.0118168	83.0835
0.011885	83.2731
0.0119536	83.4629
0.0120226	83.6529
0.0120921	83.8432
0.0121619	84.034
0.0122321	84.2253
0.0123027	84.4172
0.0123737	84.6098
0.0124451	84.8033
0.012517	84.9975
0.0125893	85.1915
0.0126619	85.3866
0.012735	85.5827
0.0128086	85.7798
0.0128825	85.9777
0.0129569	86.1767
0.0130317	86.3765
0.0131069	86.5772
0.0131826	86.7787
0.0132587	86.9811
0.0133352	87.1842
0.0134122	87.3882
0.0134896	87.5928
0.0135675	87.7982
0.0136458	88.0042
0.0137246	88.2108
0.0138038	88.4181
0.0138835	88.6259
0.0139637	88.8343
0.0140443	89.0431
0.0141254	89.2524
0.0142069	89.4621
0.0142889	89.6722
0.0143714	89.8825
0.0144544	90.0932
0.0145378	90.3041
0.0146218	90.5152
0.0147062	90.7264
0.0147911	90.9377
0.0148765	91.149
0.0149624	91.3603
0.0150487	91.5715
0.0151356	91.7827
0.015223	91.9938
0.0153109	92.2047
0.0153993	92.4156
0.0154882	92.6264
0.0155776	92.8371
0.0156675	93.0477
0.015758	93.2583
0.0158489	93.4687
0.0159404	93.6792
0.0160325	93.8895
0.016125	94.0999
0.0162181	94.3102
0.0163117	94.5204
0.0164059	94.7307
0.0165006	94.9409
0.0165959	95.1512
0.0166917	95.3614
0.016788	95.5717
0.016885	95.7821
0.0169824	95.9924
0.0170805	96.2029
0.0171791	96.4134
0.0172783	96.6241
0.017378	96.8348
0.0174783	97.0457
0.0175792	97.2567
0.0176807	97.4679
0.0177828	97.6793
0.0178855	97.8907
0.0179887	98.1023
0.0180926	98.314
0.018197	98.5258
0.0183021	98.7377
0.0184077	98.9496
0.018514	99.1617
0.0186209	99.3738
0.0187284	99.5859
0.0188365	99.7981
0.0189452	100.01
0.0190546	100.223
0.0191646	100.435
0.0192752	100.647
0.0193865	100.859
0.0194984	101.072
0.019611	101.284
0.0197242	101.496
0.0198381	101.708
0.0199526	101.92
0.0200678	102.132
0.0201837	102.344
0.0203002	102.556
0.0204174	102.767
0.0205353	102.979
0.0206538	103.19
0.020773	103.402
0.020893	103.613
0.0210136	103.824
0.0211349	104.035
0.0212569	104.246
0.0213796	104.456
0.021503	104.667
0.0216272	104.877
0.021752	105.087
0.0218776	105.297
0.0220039	105.507
0.0221309	105.717
0.0222587	105.926
0.0223872	106.135
0.0225165	106.344
0.0226464	106.553
0.0227772	106.762
0.0229087	106.97
0.0230409	107.178
0.0231739	107.386
0.0233077	107.594
0.0234423	107.801
0.0235776	108.008
0.0237137	108.215
0.0238506	108.421
0.0239883	108.627
0.0241268	108.832
0.0242661	109.038
0.0244062	109.242
0.0245471	109.447
0.0246888	109.651
0.0248313	109.854
0.0249747	110.057
0.0251189	110.259
0.0252639	110.461
0.0254097	110.663
0.0255564	110.863
0.025704	111.064
0.0258523	111.264
0.0260016	111.463
0.0261517	111.662
0.0263027	111.86
0.0264545	112.058
0.0266073	112.256
0.0267609	112.453
0.0269153	112.649
0.0270707	112.845
0.027227	113.04
0.0273842	113.235
0.0275423	113.43
0.0277013	113.624
0.0278612	113.817
0.0280221	114.01
0.0281838	114.202
0.0283465	114.394
0.0285102	114.585
0.0286748	114.776
0.0288403	114.966
0.0290068	115.155
0.0291743	115.343
0.0293427	115.53
0.0295121	115.717
0.0296825	115.903
0.0298538	116.088
0.0300262	116.272
0.0301995	116.455
0.0303739	116.637
0.0305492	116.818
0.0307256	116.998
0.030903	117.177
0.0310814	117.355
0.0312608	117.532
0.0314413	117.708
0.0316228	117.883
0.0318053	118.057
0.031989	118.229
0.0321736	118.401
0.0323594	118.572
0.0325462	118.741
0.0327341	118.91
0.032923	119.077
0.0331131	119.243
0.0333043	119.408
0.0334965	119.572
0.0336899	119.735
0.0338844	119.897
0.03408	120.058
0.0342768	120.218
0.0344747	120.376
0.0346737	120.533
0.0348739	120.69
0.0350752	120.845
0.0352777	120.998
0.0354813	121.15
0.0356862	121.301
0.0358922	121.451
0.0360994	121.6
0.0363078	121.747
0.0365174	121.894
0.0367282	122.038
0.0369403	122.182
0.0371535	122.325
0.037368	122.466
0.0375837	122.605
0.0378007	122.744
0.0380189	122.881
0.0382384	123.016
0.0384592	123.15
0.0386812	123.283
0.0389045	123.414
0.0391291	123.544
0.039355	123.672
0.0395822	123.799
0.0398107	123.924
0.0400405	124.048
0.0402717	124.17
0.0405042	124.29
0.040738	124.409
0.0409732	124.527
0.0412098	124.643
0.0414477	124.757
0.0416869	124.869
0.0419276	124.98
0.0421697	125.089
0.0424131	125.196
0.042658	125.301
0.0429042	125.405
0.0431519	125.507
0.043401	125.607
0.0436516	125.705
0.0439036	125.801
0.044157	125.896
0.044412	125.988
0.0446684	126.079
0.0449262	126.168
0.0451856	126.255
0.0454465	126.34
0.0457088	126.423
0.0459727	126.504
0.0462381	126.583
0.046505	126.66
0.0467735	126.735
0.0470435	126.808
0.0473151	126.879
0.0475883	126.948
0.047863	127.015
0.0481393	127.079
0.0484172	127.142
0.0486968	127.202
0.0489779	127.26
0.0492606	127.316
0.049545	127.37
0.049831	127.422
0.0501187	127.471
0.0504081	127.518
0.0506991	127.563
0.0509918	127.606
0.0512861	127.646
0.0515822	127.685
0.05188	127.721
0.0521795	127.754
0.0524807	127.786
0.0527837	127.815
0.0530884	127.843
0.0533949	127.868
0.0537032	127.891
0.0540132	127.912
0.054325	127.93
0.0546387	127.947
0.0549541	127.962
0.0552713	127.974
0.0555904	127.985
0.0559114	127.993
0.0562341	127.999
0.0565588	128.003
0.0568853	128.005
0.0572137	128.005
0.057544	128.003
0.0578762	127.998
0.0582103	127.991
0.0585464	127.982
0.0588844	127.97
0.0592243	127.957
0.0595662	127.941
0.0599101	127.922
0.060256	127.901
0.0606038	127.878
0.0609537	127.853
0.0613056	127.825
0.0616595	127.794
0.0620155	127.762
0.0623735	127.726
0.0627336	127.689
0.0630957	127.649
0.06346	127.606
0.0638263	127.562
0.0641948	127.515
0.0645654	127.465
0.0649382	127.413
0.0653131	127.359
0.0656901	127.302
0.0660693	127.243
0.0664508	127.182
0.0668344	127.118
0.0672202	127.052
0.0676083	126.983
0.0679986	126.912
0.0683912	126.839
0.068786	126.763
0.0691831	126.685
0.0695825	126.605
0.0699842	126.522
0.0703882	126.437
0.0707946	126.35
0.0712033	126.26
0.0716143	126.168
0.0720278	126.074
0.0724436	125.978
0.0728618	125.879
0.0732825	125.779
0.0737055	125.676
0.074131	125.572
0.074559	125.465
0.0749894	125.357
0.0754223	125.246
0.0758578	125.134
0.0762957	125.02
0.0767361	124.904
0.0771792	124.786
0.0776247	124.666
0.0780728	124.544
0.0785236	124.42
0.0789769	124.293
0.0794328	124.165
0.0798914	124.034
0.0803526	123.901
0.0808165	123.765
0.0812831	123.628
0.0817523	123.488
0.0822243	123.346
0.082699	123.202
0.0831764	123.056
0.0836566	122.907
0.0841395	122.758
0.0846253	122.606
0.0851138	122.452
0.0856052	122.297
0.0860994	122.14
0.0865964	121.982
0.0870964	121.821
0.0875992	121.66
0.0881049	121.496
0.0886135	121.332
0.0891251	121.166
0.0896396	120.998
0.0901571	120.829
0.0906776	120.659
0.0912011	120.487
0.0917276	120.314
0.0922571	120.139
0.0927897	119.963
0.0933254	119.786
0.0938642	119.606
0.0944061	119.425
0.0949511	119.243
0.0954993	119.058
0.0960506	118.872
0.0966051	118.684
0.0971628	118.494
0.0977237	118.303
0.0982879	118.111
0.0988553	117.917
0.099426	117.722
0.1	117.525
0.100577	117.328
0.101158	117.129
0.101742	116.93
0.102329	116.729
0.10292	116.528
0.103514	116.325
0.104112	116.121
0.104713	115.917
0.105317	115.711
0.105925	115.504
0.106537	115.297
0.107152	115.088
0.107771	114.879
0.108393	114.668
0.109018	114.457
0.109648	114.244
0.110281	114.031
0.110917	113.817
0.111558	113.602
0.112202	113.386
0.11285	113.169
0.113501	112.952
0.114156	112.734
0.114815	112.515
0.115478	112.295
0.116145	112.074
0.116815	111.853
0.11749	111.631
0.118168	111.409
0.11885	111.186
0.119536	110.962
0.120226	110.737
0.120921	110.513
0.121619	110.287
0.122321	110.061
0.123027	109.835
0.123737	109.608
0.124451	109.381
0.12517	109.153
0.125893	108.926
0.126619	108.698
0.12735	108.47
0.128086	108.241
0.128825	108.012
0.129569	107.783
0.130317	107.554
0.131069	107.324
0.131826	107.094
0.132587	106.864
0.133352	106.634
0.134122	106.403
0.134896	106.172
0.135675	105.941
0.136458	105.71
0.137246	105.478
0.138038	105.247
0.138835	105.015
0.139637	104.783
0.140443	104.551
0.141254	104.319
0.142069	104.087
0.142889	103.854
0.143714	103.622
0.144544	103.389
0.145378	103.156
0.146218	102.924
0.147062	102.691
0.147911	102.458
0.148765	102.225
0.149624	101.993
0.150487	101.76
0.151356	101.526
0.15223	101.293
0.153109	101.06
0.153993	100.827
0.154882	100.595
0.155776	100.362
0.156675	100.129
0.15758	99.8964
0.158489	99.6639
0.159404	99.4315
0.160325	99.1993
0.16125	98.9673
0.162181	98.7354
0.163117	98.5037
0.164059	98.2722
0.165006	98.0408
0.165959	97.8098
0.166917	97.5789
0.16788	97.3483
0.16885	97.118
0.169824	96.8879
0.170805	96.6581
0.171791	96.4287
0.172783	96.1995
0.17378	95.9707
0.174783	95.7422
0.175792	95.5141
0.176807	95.2863
0.177828	95.0589
0.178855	94.8318
0.179887	94.6052
0.180926	94.3789
0.18197	94.1529
0.183021	93.9274
0.184077	93.7022
0.18514	93.4774
0.186209	93.2529
0.187284	93.0289
0.188365	92.8052
0.189452	92.5818
0.190546	92.3589
0.191646	92.1363
0.192752	91.914
0.193865	91.6921
0.194984	91.4706
0.19611	91.2494
0.197242	91.0285
0.198381	90.808
0.199526	90.5878
0.200678	90.368
0.201837	90.1484
0.203002	89.9292
0.204174	89.7103
0.205353	89.4917
0.206538	89.2735
0.20773	89.0556
0.20893	88.8381
0.210136	88.6209
0.211349	88.4041
0.212569	88.1876
0.213796	87.9715
0.21503	87.7558
0.216272	87.5404
0.21752	87.3254
0.218776	87.1108
0.220039	86.8965
0.221309	86.6826
0.222587	86.4691
0.223872	86.256
0.225165	86.0432
0.226464	85.8308
0.227772	85.6188
0.229087	85.4072
0.230409	85.196
0.231739	84.9852
0.233077	84.7748
0.234423	84.5648
0.235776	84.3553
0.237137	84.1462
0.238506	83.9375
0.239883	83.7293
0.241268	83.5216
0.242661	83.3143
0.244062	83.1075
0.245471	82.9011
0.246888	82.6953
0.248313	82.4899
0.249747	82.285
0.251189	82.0806
0.252639	81.8767
0.254097	81.6733
0.255564	81.4704
0.25704	81.2678
0.258523	81.0657
0.260016	80.864
0.261517	80.6627
0.263027	80.4617
0.264545	80.2611
0.266073	80.0608
0.267609	79.8608
0.269153	79.661
0.270707	79.4615
0.27227	79.2622
0.273842	79.063
0.275423	78.864
0.277013	78.6651
0.278612	78.4664
0.280221	78.2678
0.281838	78.0694
0.283465	77.8712
0.285102	77.6733
0.286748	77.4755
0.288403	77.2781
0.290068	77.0809
0.291743	76.8841
0.293427	76.6875
0.295121	76.4913
0.296825	76.2956
0.298538	76.1002
0.300262	75.9052
0.301995	75.7105
0.303739	75.5164
0.305492	75.3226
0.307256	75.1293
0.30903	74.9364
0.310814	74.744
0.312608	74.5519
0.314413	74.3603
0.316228	74.1691
0.318053	73.9783
0.31989	73.7879
0.321736	73.5979
0.323594	73.4082
0.325462	73.219
0.327341	73.03
0.32923	72.8415
0.331131	72.6532
0.333043	72.4653
0.334965	72.2777
0.336899	72.0904
0.338844	71.9034
0.3408	71.7166
0.342768	71.5301
0.344747	71.3438
0.346737	71.1577
0.348739	70.9718
0.350752	70.7863
0.352777	70.6012
0.354813	70.4163
0.356862	70.2316
0.358922	70.047
0.360994	69.8627
0.363078	69.6785
0.365174	69.4946
0.367282	69.3108
0.369403	69.1273
0.371535	68.944
0.37368	68.7609
0.375837	68.578
0.378007	68.3954
0.380189	68.213
0.382384	68.0308
0.384592	67.8489
0.386812	67.6673
0.389045	67.4859
0.391291	67.3048
0.39355	67.1239
0.395822	66.9433
0.398107	66.763
0.400405	66.583
0.402717	66.4031
0.405042	66.2236
0.40738	66.0442
0.409732	65.8652
0.412098	65.6864
0.414477	65.5079
0.416869	65.3296
0.419276	65.1516
0.421697	64.9738
0.424131	64.7962
0.42658	64.6188
0.429042	64.4417
0.431519	64.2647
0.43401	64.0879
0.436516	63.9112
0.439036	63.7347
0.44157	63.5584
0.44412	63.3822
0.446684	63.2061
0.449262	63.0301
0.451856	62.8541
0.454465	62.6782
0.457088	62.5025
0.459727	62.327
0.462381	62.1516
0.46505	61.9765
0.467735	61.8017
0.470435	61.6272
0.473151	61.4531
0.475883	61.2793
0.47863	61.1061
0.481393	60.9333
0.484172	60.7611
0.486968	60.5895
0.489779	60.4185
0.492606	60.2482
0.49545	60.0787
0.49831	59.9099
0.501187	59.742
0.504081	59.575
0.506991	59.4089
0.509918	59.2436
0.512861	59.079
0.515822	58.9153
0.5188	58.7522
0.521795	58.5899
0.524807	58.4283
0.527837	58.2672
0.530884	58.1068
0.533949	57.9469
0.537032	57.7876
0.540132	57.6287
0.54325	57.4703
0.546387	57.3122
0.549541	57.1545
0.552713	56.997
0.555904	56.8398
0.559114	56.6829
0.562341	56.5263
0.565588	56.3699
0.568853	56.2137
0.572137	56.0578
0.57544	55.9021
0.578762	55.7467
0.582103	55.5915
0.585464	55.4365
0.588844	55.2817
0.592243	55.1271
0.595662	54.9727
0.599101	54.8185
0.60256	54.6644
0.606038	54.5104
0.609537	54.3566
