Stopping power dEdx from Ionisation for Sc45[0.0] Z = 21 in G4_Si, process name: ionIoni
E [MeV]	dEdx [MeV/mm]
0.001	29.4636
0.00100577	29.5491
0.00101158	29.635
0.00101742	29.721
0.00102329	29.8073
0.0010292	29.8939
0.00103514	29.9807
0.00104112	30.0677
0.00104713	30.155
0.00105317	30.2426
0.00105925	30.3304
0.00106537	30.4184
0.00107152	30.5067
0.00107771	30.5953
0.00108393	30.6841
0.00109018	30.7732
0.00109648	30.8625
0.00110281	30.9521
0.00110917	31.042
0.00111558	31.1321
0.00112202	31.2225
0.0011285	31.3131
0.00113501	31.404
0.00114156	31.4951
0.00114815	31.5866
0.00115478	31.6782
0.00116145	31.7702
0.00116815	31.8624
0.0011749	31.9549
0.00118168	32.0476
0.0011885	32.1406
0.00119536	32.2339
0.00120226	32.3274
0.00120921	32.4212
0.00121619	32.5153
0.00122321	32.6097
0.00123027	32.7043
0.00123737	32.7992
0.00124451	32.8944
0.0012517	32.9898
0.00125893	33.0856
0.00126619	33.1816
0.0012735	33.2778
0.00128086	33.3744
0.00128825	33.4712
0.00129569	33.5683
0.00130317	33.6657
0.00131069	33.7634
0.00131826	33.8614
0.00132587	33.9596
0.00133352	34.0581
0.00134122	34.1569
0.00134896	34.256
0.00135675	34.3554
0.00136458	34.455
0.00137246	34.555
0.00138038	34.6552
0.00138835	34.7557
0.00139637	34.8566
0.00140443	34.9577
0.00141254	35.0591
0.00142069	35.1607
0.00142889	35.2627
0.00143714	35.365
0.00144544	35.4676
0.00145378	35.5704
0.00146218	35.6736
0.00147062	35.7771
0.00147911	35.8808
0.00148765	35.9849
0.00149624	36.0892
0.00150487	36.1939
0.00151356	36.2989
0.0015223	36.4041
0.00153109	36.5097
0.00153993	36.6156
0.00154882	36.7217
0.00155776	36.8282
0.00156675	36.935
0.0015758	37.0421
0.00158489	37.1495
0.00159404	37.2572
0.00160325	37.3652
0.0016125	37.4736
0.00162181	37.5822
0.00163117	37.6912
0.00164059	37.8005
0.00165006	37.91
0.00165959	38.0199
0.00166917	38.1302
0.0016788	38.2407
0.0016885	38.3516
0.00169824	38.4627
0.00170805	38.5742
0.00171791	38.6861
0.00172783	38.7982
0.0017378	38.9107
0.00174783	39.0235
0.00175792	39.1366
0.00176807	39.25
0.00177828	39.3638
0.00178855	39.4779
0.00179887	39.5923
0.00180926	39.7071
0.0018197	39.8222
0.00183021	39.9376
0.00184077	40.0533
0.0018514	40.1694
0.00186209	40.2858
0.00187284	40.4026
0.00188365	40.5197
0.00189452	40.6371
0.00190546	40.7549
0.00191646	40.873
0.00192752	40.9914
0.00193865	41.1102
0.00194984	41.2293
0.0019611	41.3488
0.00197242	41.4686
0.00198381	41.5888
0.00199526	41.7093
0.00200678	41.8302
0.00201837	41.9514
0.00203002	42.0729
0.00204174	42.1948
0.00205353	42.3171
0.00206538	42.4397
0.0020773	42.5626
0.0020893	42.686
0.00210136	42.8096
0.00211349	42.9337
0.00212569	43.058
0.00213796	43.1828
0.0021503	43.3079
0.00216272	43.4334
0.0021752	43.5592
0.00218776	43.6854
0.00220039	43.8119
0.00221309	43.9388
0.00222587	44.0661
0.00223872	44.1938
0.00225165	44.3218
0.00226464	44.4502
0.00227772	44.5789
0.00229087	44.7081
0.00230409	44.8376
0.00231739	44.9674
0.00233077	45.0977
0.00234423	45.2283
0.00235776	45.3593
0.00237137	45.4907
0.00238506	45.6224
0.00239883	45.7546
0.00241268	45.8871
0.00242661	46.02
0.00244062	46.1533
0.00245471	46.2869
0.00246888	46.421
0.00248313	46.5554
0.00249747	46.6903
0.00251189	46.8255
0.00252639	46.9611
0.00254097	47.0971
0.00255564	47.2335
0.0025704	47.3702
0.00258523	47.5074
0.00260016	47.645
0.00261517	47.783
0.00263027	47.9213
0.00264545	48.0601
0.00266073	48.1992
0.00267609	48.3388
0.00269153	48.4788
0.00270707	48.6191
0.0027227	48.7599
0.00273842	48.9011
0.00275423	49.0427
0.00277013	49.1847
0.00278612	49.3271
0.00280221	49.4699
0.00281838	49.6131
0.00283465	49.7568
0.00285102	49.9008
0.00286748	50.0453
0.00288403	50.1902
0.00290068	50.3355
0.00291743	50.4812
0.00293427	50.6273
0.00295121	50.7739
0.00296825	50.9209
0.00298538	51.0683
0.00300262	51.2161
0.00301995	51.3644
0.00303739	51.5131
0.00305492	51.6622
0.00307256	51.8117
0.0030903	51.9617
0.00310814	52.1121
0.00312608	52.2629
0.00314413	52.4142
0.00316228	52.5659
0.00318053	52.7181
0.0031989	52.8707
0.00321736	53.0237
0.00323594	53.1772
0.00325462	53.3311
0.00327341	53.4854
0.0032923	53.6402
0.00331131	53.7955
0.00333043	53.9512
0.00334965	54.1073
0.00336899	54.2639
0.00338844	54.421
0.003408	54.5784
0.00342768	54.7364
0.00344747	54.8948
0.00346737	55.0537
0.00348739	55.213
0.00350752	55.3728
0.00352777	55.533
0.00354813	55.6937
0.00356862	55.8549
0.00358922	56.0165
0.00360994	56.1786
0.00363078	56.3412
0.00365174	56.5042
0.00367282	56.6677
0.00369403	56.8317
0.00371535	56.9961
0.0037368	57.161
0.00375837	57.3264
0.00378007	57.4923
0.00380189	57.6586
0.00382384	57.8255
0.00384592	57.9928
0.00386812	58.1606
0.00389045	58.3289
0.00391291	58.4976
0.0039355	58.6669
0.00395822	58.8366
0.00398107	59.0068
0.00400405	59.1775
0.00402717	59.3487
0.00405042	59.5204
0.0040738	59.6926
0.00409732	59.8653
0.00412098	60.0385
0.00414477	60.2122
0.00416869	60.3864
0.00419276	60.5611
0.00421697	60.7363
0.00424131	60.912
0.0042658	61.0882
0.00429042	61.2649
0.00431519	61.4421
0.0043401	61.6199
0.00436516	61.7981
0.00439036	61.9769
0.0044157	62.1561
0.0044412	62.3359
0.00446684	62.5162
0.00449262	62.6971
0.00451856	62.8784
0.00454465	63.0603
0.00457088	63.2427
0.00459727	63.4256
0.00462381	63.6091
0.0046505	63.7931
0.00467735	63.9776
0.00470435	64.1626
0.00473151	64.3482
0.00475883	64.5343
0.0047863	64.7209
0.00481393	64.9081
0.00484172	65.0959
0.00486968	65.2841
0.00489779	65.4729
0.00492606	65.6623
0.0049545	65.8522
0.0049831	66.0426
0.00501187	66.2336
0.00504081	66.4252
0.00506991	66.6173
0.00509918	66.8099
0.00512861	67.0031
0.00515822	67.1969
0.005188	67.3912
0.00521795	67.5861
0.00524807	67.7815
0.00527837	67.9775
0.00530884	68.1741
0.00533949	68.3712
0.00537032	68.569
0.00540132	68.7672
0.0054325	68.9661
0.00546387	69.1655
0.00549541	69.3655
0.00552713	69.5661
0.00555904	69.7672
0.00559114	69.969
0.00562341	70.1713
0.00565588	70.3742
0.00568853	70.5776
0.00572137	70.7817
0.0057544	70.9864
0.00578762	71.1916
0.00582103	71.3974
0.00585464	71.6039
0.00588844	71.8109
0.00592243	72.0185
0.00595662	72.2267
0.00599101	72.4356
0.0060256	72.645
0.00606038	72.855
0.00609537	73.0656
0.00613056	73.2769
0.00616595	73.4887
0.00620155	73.7012
0.00623735	73.9142
0.00627336	74.1279
0.00630957	74.3422
0.006346	74.5571
0.00638263	74.7727
0.00641948	74.9888
0.00645654	75.2056
0.00649382	75.423
0.00653131	75.6411
0.00656901	75.8597
0.00660693	76.079
0.00664508	76.2989
0.00668344	76.5195
0.00672202	76.7407
0.00676083	76.9625
0.00679986	77.185
0.00683912	77.4081
0.0068786	77.6318
0.00691831	77.8562
0.00695825	78.0813
0.00699842	78.307
0.00703882	78.5333
0.00707946	78.7603
0.00712033	78.988
0.00716143	79.2163
0.00720278	79.4453
0.00724436	79.6749
0.00728618	79.9052
0.00732825	80.1361
0.00737055	80.3677
0.0074131	80.6
0.0074559	80.833
0.00749894	81.0666
0.00754223	81.3009
0.00758578	81.5359
0.00762957	81.7715
0.00767361	82.0079
0.00771792	82.2449
0.00776247	82.4826
0.00780728	82.721
0.00785236	82.96
0.00789769	83.1998
0.00794328	83.4402
0.00798914	83.6814
0.00803526	83.9232
0.00808165	84.1657
0.00812831	84.409
0.00817523	84.6529
0.00822243	84.8975
0.0082699	85.1429
0.00831764	85.3889
0.00836566	85.6357
0.00841395	85.8832
0.00846253	86.1313
0.00851138	86.3802
0.00856052	86.6299
0.00860994	86.8802
0.00865964	87.1312
0.00870964	87.383
0.00875992	87.6355
0.00881049	87.8888
0.00886135	88.1427
0.00891251	88.3974
0.00896396	88.6529
0.00901571	88.909
0.00906776	89.1659
0.00912011	91.0451
0.00917276	91.3071
0.00922571	91.5699
0.00927897	91.8334
0.00933254	92.0977
0.00938642	92.3627
0.00944061	92.6285
0.00949511	92.8951
0.00954993	93.1624
0.00960506	93.4305
0.00966051	93.6994
0.00971628	93.969
0.00977237	94.2394
0.00982879	94.5106
0.00988553	94.7826
0.0099426	95.0553
0.01	95.3289
0.0100577	95.6032
0.0101158	95.8783
0.0101742	96.1542
0.0102329	96.4309
0.010292	96.7084
0.0103514	96.9866
0.0104112	97.2657
0.0104713	97.5456
0.0105317	97.8263
0.0105925	98.1078
0.0106537	98.3901
0.0107152	98.6732
0.0107771	98.9571
0.0108393	99.2419
0.0109018	99.5275
0.0109648	99.8138
0.0110281	100.101
0.0110917	100.389
0.0111558	100.678
0.0112202	100.968
0.011285	101.258
0.0113501	101.549
0.0114156	101.842
0.0114815	102.135
0.0115478	102.429
0.0116145	102.723
0.0116815	103.019
0.011749	103.315
0.0118168	103.613
0.011885	103.911
0.0119536	104.21
0.0120226	104.509
0.0120921	104.81
0.0121619	105.112
0.0122321	105.414
0.0123027	105.717
0.0123737	106.022
0.0124451	106.327
0.012517	106.632
0.0125893	106.939
0.0126619	107.247
0.012735	107.555
0.0128086	107.865
0.0128825	108.175
0.0129569	108.486
0.0130317	108.799
0.0131069	109.112
0.0131826	109.426
0.0132587	109.74
0.0133352	110.056
0.0134122	110.373
0.0134896	110.69
0.0135675	111.009
0.0136458	111.328
0.0137246	111.648
0.0138038	111.969
0.0138835	112.292
0.0139637	112.615
0.0140443	112.939
0.0141254	113.263
0.0142069	113.589
0.0142889	113.916
0.0143714	114.244
0.0144544	114.572
0.0145378	114.902
0.0146218	115.233
0.0147062	115.564
0.0147911	115.896
0.0148765	116.23
0.0149624	116.564
0.0150487	116.899
0.0151356	117.236
0.015223	117.573
0.0153109	117.911
0.0153993	118.25
0.0154882	118.59
0.0155776	118.932
0.0156675	119.274
0.015758	119.617
0.0158489	119.961
0.0159404	120.306
0.0160325	120.652
0.016125	120.999
0.0162181	121.347
0.0163117	121.696
0.0164059	122.046
0.0165006	122.397
0.0165959	122.749
0.0166917	123.102
0.016788	123.456
0.016885	123.811
0.0169824	124.168
0.0170805	124.525
0.0171791	124.883
0.0172783	125.242
0.017378	125.602
0.0174783	125.963
0.0175792	126.326
0.0176807	126.689
0.0177828	127.053
0.0178855	127.419
0.0179887	127.785
0.0180926	128.153
0.018197	128.521
0.0183021	128.891
0.0184077	129.262
0.018514	129.633
0.0186209	130.006
0.0187284	130.38
0.0188365	130.755
0.0189452	131.131
0.0190546	131.508
0.0191646	131.886
0.0192752	132.266
0.0193865	132.646
0.0194984	133.028
0.019611	133.41
0.0197242	133.794
0.0198381	134.178
0.0199526	134.564
0.0200678	134.951
0.0201837	135.339
0.0203002	135.729
0.0204174	136.119
0.0205353	136.51
0.0206538	136.903
0.020773	137.296
0.020893	137.691
0.0210136	138.087
0.0211349	138.484
0.0212569	138.882
0.0213796	139.282
0.021503	139.682
0.0216272	140.084
0.021752	140.487
0.0218776	140.891
0.0220039	141.296
0.0221309	141.702
0.0222587	142.11
0.0223872	142.518
0.0225165	142.928
0.0226464	143.339
0.0227772	143.751
0.0229087	144.164
0.0230409	144.579
0.0231739	144.995
0.0233077	145.411
0.0234423	145.829
0.0235776	146.249
0.0237137	146.669
0.0238506	147.091
0.0239883	147.514
0.0241268	147.938
0.0242661	148.363
0.0244062	148.79
0.0245471	149.218
0.0246888	149.647
0.0248313	150.077
0.0249747	150.508
0.0251189	150.941
0.0252639	151.375
0.0254097	151.81
0.0255564	152.246
0.025704	152.684
0.0258523	153.123
0.0260016	153.563
0.0261517	154.005
0.0263027	154.447
0.0264545	154.891
0.0266073	155.337
0.0267609	155.783
0.0269153	156.231
0.0270707	156.68
0.027227	157.131
0.0273842	157.582
0.0275423	158.035
0.0277013	158.489
0.0278612	158.945
0.0280221	159.402
0.0281838	159.86
0.0283465	160.32
0.0285102	160.78
0.0286748	161.243
0.0288403	161.706
0.0290068	162.171
0.0291743	162.637
0.0293427	163.104
0.0295121	163.573
0.0296825	164.043
0.0298538	164.515
0.0300262	164.988
0.0301995	165.462
0.0303739	165.937
0.0305492	166.414
0.0307256	166.893
0.030903	167.372
0.0310814	167.853
0.0312608	168.336
0.0314413	168.82
0.0316228	169.305
0.0318053	169.791
0.031989	170.279
0.0321736	170.769
0.0323594	171.259
0.0325462	171.752
0.0327341	172.245
0.032923	172.74
0.0331131	173.237
0.0333043	173.734
0.0334965	174.234
0.0336899	174.734
0.0338844	175.237
0.03408	175.74
0.0342768	176.245
0.0344747	176.752
0.0346737	177.26
0.0348739	177.769
0.0350752	178.28
0.0352777	178.792
0.0354813	179.306
0.0356862	179.821
0.0358922	180.338
0.0360994	180.856
0.0363078	181.376
0.0365174	181.897
0.0367282	182.419
0.0369403	182.943
0.0371535	183.469
0.037368	183.996
0.0375837	184.525
0.0378007	185.055
0.0380189	185.587
0.0382384	186.12
0.0384592	186.655
0.0386812	187.191
0.0389045	187.729
0.0391291	188.268
0.039355	188.809
0.0395822	189.352
0.0398107	189.896
0.0400405	190.441
0.0402717	190.988
0.0405042	191.537
0.040738	192.087
0.0409732	192.639
0.0412098	193.192
0.0414477	193.747
0.0416869	194.304
0.0419276	194.862
0.0421697	195.422
0.0424131	195.983
0.042658	196.546
0.0429042	197.111
0.0431519	197.677
0.043401	198.245
0.0436516	198.814
0.0439036	199.385
0.044157	199.958
0.044412	200.533
0.0446684	201.109
0.0449262	201.686
0.0451856	202.266
0.0454465	202.847
0.0457088	203.429
0.0459727	204.013
0.0462381	204.599
0.046505	205.187
0.0467735	205.776
0.0470435	206.367
0.0473151	206.96
0.0475883	207.555
0.047863	208.151
0.0481393	208.748
0.0484172	209.348
0.0486968	209.949
0.0489779	210.552
0.0492606	211.157
0.049545	211.763
0.049831	212.371
0.0501187	212.981
0.0504081	213.593
0.0506991	214.206
0.0509918	214.822
0.0512861	215.438
0.0515822	216.057
0.05188	216.678
0.0521795	217.3
0.0524807	217.924
0.0527837	218.549
0.0530884	219.177
0.0533949	219.806
0.0537032	220.438
0.0540132	221.071
0.054325	221.705
0.0546387	222.342
0.0549541	222.98
0.0552713	223.621
0.0555904	224.263
0.0559114	224.907
0.0562341	225.552
0.0565588	226.2
0.0568853	226.849
0.0572137	227.501
0.057544	228.154
0.0578762	228.809
0.0582103	229.466
0.0585464	230.125
0.0588844	230.785
0.0592243	231.448
0.0595662	232.112
0.0599101	232.779
0.060256	233.447
0.0606038	234.117
0.0609537	234.789
0.0613056	235.463
0.0616595	236.139
0.0620155	236.817
0.0623735	237.497
0.0627336	238.179
0.0630957	238.862
0.06346	239.548
0.0638263	240.235
0.0641948	240.925
0.0645654	241.617
0.0649382	242.31
0.0653131	243.006
0.0656901	243.703
0.0660693	244.403
0.0664508	245.104
0.0668344	245.808
0.0672202	246.513
0.0676083	247.221
0.0679986	247.93
0.0683912	248.642
0.068786	249.355
0.0691831	250.071
0.0695825	250.789
0.0699842	251.508
0.0703882	252.23
0.0707946	252.954
0.0712033	253.68
0.0716143	254.408
0.0720278	255.138
0.0724436	255.87
0.0728618	256.605
0.0732825	257.341
0.0737055	258.079
0.074131	258.82
0.074559	259.563
0.0749894	260.307
0.0754223	261.054
0.0758578	261.803
0.0762957	262.555
0.0767361	263.308
0.0771792	264.064
0.0776247	264.821
0.0780728	265.581
0.0785236	266.343
0.0789769	267.107
0.0794328	267.874
0.0798914	268.642
0.0803526	269.413
0.0808165	270.186
0.0812831	270.961
0.0817523	271.738
0.0822243	272.518
0.082699	273.3
0.0831764	274.084
0.0836566	274.87
0.0841395	275.659
0.0846253	276.449
0.0851138	277.242
0.0856052	278.038
0.0860994	278.835
0.0865964	279.635
0.0870964	280.437
0.0875992	281.242
0.0881049	282.048
0.0886135	282.857
0.0891251	283.669
0.0896396	284.482
0.0901571	285.298
0.0906776	286.117
0.0912011	286.937
0.0917276	287.76
0.0922571	288.586
0.0927897	289.413
0.0933254	290.243
0.0938642	291.076
0.0944061	291.91
0.0949511	292.748
0.0954993	293.587
0.0960506	294.429
0.0966051	295.274
0.0971628	296.12
0.0977237	296.969
0.0982879	297.821
0.0988553	298.675
0.099426	299.532
0.1	300.39
0.100577	301.252
0.101158	302.116
0.101742	302.982
0.102329	303.851
0.10292	304.722
0.103514	305.596
0.104112	306.472
0.104713	307.351
0.105317	308.232
0.105925	309.115
0.106537	310.002
0.107152	310.89
0.107771	311.782
0.108393	312.676
0.109018	313.572
0.109648	314.471
0.110281	315.373
0.110917	316.277
0.111558	317.183
0.112202	318.093
0.11285	319.004
0.113501	319.919
0.114156	320.836
0.114815	321.756
0.115478	322.678
0.116145	323.603
0.116815	324.53
0.11749	325.46
0.118168	326.393
0.11885	327.329
0.119536	328.267
0.120226	329.208
0.120921	330.151
0.121619	331.098
0.122321	332.046
0.123027	332.998
0.123737	333.952
0.124451	334.909
0.12517	335.869
0.125893	336.832
0.126619	337.797
0.12735	338.765
0.128086	339.736
0.128825	340.709
0.129569	341.686
0.130317	342.665
0.131069	343.647
0.131826	344.631
0.132587	345.619
0.133352	346.609
0.134122	347.602
0.134896	348.598
0.135675	349.597
0.136458	350.598
0.137246	351.603
0.138038	352.61
0.138835	353.62
0.139637	354.633
0.140443	355.649
0.141254	356.668
0.142069	357.69
0.142889	358.715
0.143714	359.742
0.144544	360.773
0.145378	361.806
0.146218	362.842
0.147062	363.882
0.147911	364.924
0.148765	365.969
0.149624	367.018
0.150487	368.069
0.151356	369.123
0.15223	370.18
0.153109	371.24
0.153993	372.304
0.154882	373.37
0.155776	374.439
0.156675	375.511
0.15758	376.587
0.158489	377.665
0.159404	378.747
0.160325	379.831
0.16125	380.919
0.162181	382.01
0.163117	383.104
0.164059	384.201
0.165006	385.301
0.165959	386.404
0.166917	387.51
0.16788	388.62
0.16885	389.733
0.169824	390.848
0.170805	391.967
0.171791	393.09
0.172783	394.215
0.17378	395.343
0.174783	396.475
0.175792	397.61
0.176807	398.749
0.177828	399.89
0.178855	401.035
0.179887	402.183
0.180926	403.334
0.18197	404.488
0.183021	405.646
0.184077	406.807
0.18514	407.972
0.186209	409.139
0.187284	410.31
0.188365	411.485
0.189452	412.662
0.190546	413.843
0.191646	415.028
0.192752	416.216
0.193865	417.407
0.194984	418.601
0.19611	419.799
0.197242	421
0.198381	422.205
0.199526	423.413
0.200678	424.625
0.201837	425.84
0.203002	427.058
0.204174	428.28
0.205353	429.505
0.206538	430.734
0.20773	431.967
0.20893	433.203
0.210136	434.442
0.211349	435.685
0.212569	436.931
0.213796	438.181
0.21503	439.435
0.216272	440.692
0.21752	441.952
0.218776	443.217
0.220039	444.484
0.221309	445.756
0.222587	447.031
0.223872	448.309
0.225165	449.592
0.226464	450.878
0.227772	452.167
0.229087	453.46
0.230409	454.757
0.231739	456.058
0.233077	457.362
0.234423	458.67
0.235776	459.982
0.237137	461.297
0.238506	462.616
0.239883	463.939
0.241268	465.266
0.242661	466.596
0.244062	467.93
0.245471	469.268
0.246888	470.61
0.248313	471.955
0.249747	473.305
0.251189	474.658
0.252639	476.015
0.254097	477.376
0.255564	478.74
0.25704	480.109
0.258523	481.481
0.260016	482.858
0.261517	484.238
0.263027	485.622
0.264545	487.01
0.266073	488.402
0.267609	489.798
0.269153	491.198
0.270707	492.602
0.27227	494.01
0.273842	495.422
0.275423	496.838
0.277013	498.258
0.278612	499.682
0.280221	501.109
0.281838	502.541
0.283465	503.978
0.285102	505.418
0.286748	506.862
0.288403	508.31
0.290068	509.762
0.291743	511.219
0.293427	512.68
0.295121	514.144
0.296825	515.613
0.298538	517.086
0.300262	518.564
0.301995	520.045
0.303739	521.531
0.305492	523.02
0.307256	524.514
0.30903	526.013
0.310814	527.515
0.312608	529.022
0.314413	530.533
0.316228	532.048
0.318053	533.568
0.31989	535.092
0.321736	536.62
0.323594	538.153
0.325462	539.689
0.327341	541.231
0.32923	542.776
0.331131	544.326
0.333043	545.881
0.334965	547.439
0.336899	549.002
0.338844	550.57
0.3408	552.142
0.342768	553.718
0.344747	555.299
0.346737	556.885
0.348739	558.475
0.350752	560.069
0.352777	561.668
0.354813	563.271
0.356862	564.879
0.358922	566.491
0.360994	568.109
0.363078	569.73
0.365174	571.356
0.367282	572.987
0.369403	574.622
0.371535	576.262
0.37368	577.907
0.375837	579.556
0.378007	581.21
0.380189	582.869
0.382384	584.532
0.384592	586.2
0.386812	587.873
0.389045	589.55
0.391291	591.233
0.39355	592.919
0.395822	594.611
0.398107	596.308
0.400405	598.009
0.402717	599.715
0.405042	601.426
0.40738	603.142
0.409732	604.862
0.412098	606.588
0.414477	608.318
0.416869	610.053
0.419276	611.793
0.421697	613.538
0.424131	615.288
0.42658	617.043
0.429042	618.803
0.431519	620.567
0.43401	622.337
0.436516	624.112
0.439036	625.892
0.44157	627.676
0.44412	629.466
0.446684	631.261
0.449262	633.061
0.451856	634.866
0.454465	636.676
0.457088	638.491
0.459727	640.312
0.462381	642.137
0.46505	643.968
0.467735	645.803
0.470435	647.644
0.473151	649.49
0.475883	651.342
0.47863	653.198
0.481393	655.06
0.484172	656.927
0.486968	658.799
0.489779	660.677
0.492606	662.56
0.49545	664.448
0.49831	666.341
0.501187	668.24
0.504081	670.144
0.506991	672.054
0.509918	673.969
0.512861	675.889
0.515822	677.815
0.5188	679.746
0.521795	681.682
0.524807	683.624
0.527837	685.572
0.530884	687.525
0.533949	689.483
0.537032	691.447
0.540132	693.417
0.54325	695.392
0.546387	697.372
0.549541	699.359
0.552713	701.35
0.555904	703.348
0.559114	705.351
0.562341	707.359
0.565588	709.374
0.568853	711.394
0.572137	713.419
0.57544	715.451
0.578762	717.488
0.582103	719.531
0.585464	721.579
0.588844	723.633
0.592243	725.693
0.595662	727.759
0.599101	729.831
0.60256	731.908
0.606038	733.992
0.609537	736.081
0.613056	738.176
