Stopping power dEdx from Ionisation for Si28[0.0] Z = 14 in G4_TISSUE_SOFT_ICRP, process name: ionIoni
E [MeV]	dEdx [MeV/mm]
0.001	58.4178
0.00100577	58.5862
0.00101158	58.755
0.00101742	58.9244
0.00102329	59.0942
0.0010292	59.2646
0.00103514	59.4354
0.00104112	59.6067
0.00104713	59.7785
0.00105317	59.9508
0.00105925	60.1236
0.00106537	60.2969
0.00107152	60.4707
0.00107771	60.645
0.00108393	60.8198
0.00109018	60.9951
0.00109648	61.1709
0.00110281	61.3472
0.00110917	61.5241
0.00111558	61.7014
0.00112202	61.8792
0.0011285	62.0576
0.00113501	62.2365
0.00114156	62.4159
0.00114815	62.5958
0.00115478	62.7762
0.00116145	62.9571
0.00116815	63.1386
0.0011749	63.3206
0.00118168	63.5031
0.0011885	63.6861
0.00119536	63.8697
0.00120226	64.0538
0.00120921	64.2384
0.00121619	64.4236
0.00122321	64.6093
0.00123027	64.7955
0.00123737	64.9823
0.00124451	65.1696
0.0012517	65.3574
0.00125893	65.5458
0.00126619	65.7347
0.0012735	65.9242
0.00128086	66.1142
0.00128825	66.3048
0.00129569	66.4959
0.00130317	66.6876
0.00131069	66.8798
0.00131826	67.0726
0.00132587	67.2659
0.00133352	67.4598
0.00134122	67.6542
0.00134896	67.8492
0.00135675	68.0448
0.00136458	68.2409
0.00137246	68.4376
0.00138038	68.6349
0.00138835	68.8327
0.00139637	69.0311
0.00140443	69.2301
0.00141254	69.4297
0.00142069	69.6298
0.00142889	69.8305
0.00143714	70.0318
0.00144544	70.2336
0.00145378	70.436
0.00146218	70.6391
0.00147062	70.8427
0.00147911	71.0469
0.00148765	71.2517
0.00149624	71.457
0.00150487	71.663
0.00151356	71.8696
0.0015223	72.0767
0.00153109	72.2845
0.00153993	72.4928
0.00154882	72.7018
0.00155776	72.9113
0.00156675	73.1215
0.0015758	73.3322
0.00158489	73.5436
0.00159404	73.7556
0.00160325	73.9682
0.0016125	74.1814
0.00162181	74.3952
0.00163117	74.6096
0.00164059	74.8247
0.00165006	75.0404
0.00165959	75.2567
0.00166917	75.4736
0.0016788	75.6911
0.0016885	75.9093
0.00169824	76.1281
0.00170805	76.3475
0.00171791	76.5676
0.00172783	76.7883
0.0017378	77.0096
0.00174783	77.2316
0.00175792	77.4542
0.00176807	77.6775
0.00177828	77.9014
0.00178855	78.1259
0.00179887	78.3511
0.00180926	78.5769
0.0018197	78.8034
0.00183021	79.0305
0.00184077	79.2583
0.0018514	79.4868
0.00186209	79.7159
0.00187284	79.9457
0.00188365	80.1761
0.00189452	80.4072
0.00190546	80.639
0.00191646	80.8714
0.00192752	81.1045
0.00193865	81.3383
0.00194984	81.5727
0.0019611	81.8079
0.00197242	82.0437
0.00198381	82.2801
0.00199526	82.5173
0.00200678	82.7551
0.00201837	82.9937
0.00203002	83.2329
0.00204174	83.4728
0.00205353	83.7134
0.00206538	83.9547
0.0020773	84.1967
0.0020893	84.4394
0.00210136	84.6828
0.00211349	84.9268
0.00212569	85.1716
0.00213796	85.4171
0.0021503	85.6633
0.00216272	85.9103
0.0021752	86.1579
0.00218776	86.4062
0.00220039	86.6553
0.00221309	86.905
0.00222587	87.1555
0.00223872	87.4068
0.00225165	87.6587
0.00226464	87.9114
0.00227772	88.1648
0.00229087	88.4189
0.00230409	88.6737
0.00231739	88.9293
0.00233077	89.1857
0.00234423	89.4427
0.00235776	89.7005
0.00237137	89.9591
0.00238506	90.2184
0.00239883	90.4784
0.00241268	90.7392
0.00242661	91.0008
0.00244062	91.2631
0.00245471	91.5261
0.00246888	91.7899
0.00248313	92.0545
0.00249747	92.3198
0.00251189	92.5859
0.00252639	92.8528
0.00254097	93.1204
0.00255564	93.3888
0.0025704	93.658
0.00258523	93.928
0.00260016	94.1987
0.00261517	94.4702
0.00263027	94.7425
0.00264545	95.0156
0.00266073	95.2895
0.00267609	95.5641
0.00269153	95.8396
0.00270707	96.1158
0.0027227	96.3929
0.00273842	96.6707
0.00275423	96.9494
0.00277013	97.2288
0.00278612	97.5091
0.00280221	97.7901
0.00281838	98.072
0.00283465	98.3547
0.00285102	98.6382
0.00286748	98.9225
0.00288403	99.2076
0.00290068	99.4936
0.00291743	99.7803
0.00293427	100.068
0.00295121	100.356
0.00296825	100.646
0.00298538	100.936
0.00300262	101.227
0.00301995	101.518
0.00303739	101.811
0.00305492	102.105
0.00307256	102.399
0.0030903	102.694
0.00310814	102.99
0.00312608	103.287
0.00314413	103.585
0.00316228	103.883
0.00318053	104.183
0.0031989	104.483
0.00321736	104.784
0.00323594	105.086
0.00325462	105.389
0.00327341	105.693
0.0032923	105.997
0.00331131	106.303
0.00333043	106.609
0.00334965	106.917
0.00336899	107.225
0.00338844	107.534
0.003408	107.844
0.00342768	108.155
0.00344747	108.466
0.00346737	108.779
0.00348739	109.093
0.00350752	109.407
0.00352777	109.722
0.00354813	110.039
0.00356862	110.356
0.00358922	110.674
0.00360994	110.993
0.00363078	111.313
0.00365174	111.634
0.00367282	111.955
0.00369403	112.278
0.00371535	112.602
0.0037368	112.926
0.00375837	113.252
0.00378007	113.578
0.00380189	113.906
0.00382384	114.234
0.00384592	114.563
0.00386812	114.893
0.00389045	115.225
0.00391291	115.557
0.0039355	115.89
0.00395822	116.224
0.00398107	116.559
0.00400405	116.895
0.00402717	117.232
0.00405042	117.57
0.0040738	117.908
0.00409732	118.248
0.00412098	118.589
0.00414477	118.931
0.00416869	119.274
0.00419276	119.618
0.00421697	119.962
0.00424131	120.308
0.0042658	120.655
0.00429042	121.003
0.00431519	121.351
0.0043401	121.701
0.00436516	122.052
0.00439036	122.404
0.0044157	122.757
0.0044412	123.11
0.00446684	123.465
0.00449262	123.821
0.00451856	124.178
0.00454465	124.536
0.00457088	124.895
0.00459727	125.255
0.00462381	125.616
0.0046505	125.978
0.00467735	126.341
0.00470435	126.705
0.00473151	127.071
0.00475883	127.437
0.0047863	127.804
0.00481393	128.173
0.00484172	128.542
0.00486968	128.912
0.00489779	129.284
0.00492606	129.657
0.0049545	130.03
0.0049831	130.405
0.00501187	130.781
0.00504081	131.158
0.00506991	131.536
0.00509918	131.915
0.00512861	132.295
0.00515822	132.677
0.005188	133.059
0.00521795	133.443
0.00524807	133.827
0.00527837	134.213
0.00530884	134.6
0.00533949	134.988
0.00537032	135.377
0.00540132	135.767
0.0054325	136.159
0.00546387	136.551
0.00549541	136.945
0.00552713	137.339
0.00555904	137.735
0.00559114	138.132
0.00562341	138.53
0.00565588	138.93
0.00568853	139.33
0.00572137	139.732
0.0057544	140.134
0.00578762	140.538
0.00582103	140.943
0.00585464	141.35
0.00588844	141.757
0.00592243	142.166
0.00595662	142.576
0.00599101	142.986
0.0060256	143.399
0.00606038	143.812
0.00609537	144.226
0.00613056	144.642
0.00616595	145.059
0.00620155	145.477
0.00623735	145.897
0.00627336	146.317
0.00630957	146.739
0.006346	147.162
0.00638263	147.586
0.00641948	148.011
0.00645654	148.438
0.00649382	148.866
0.00653131	149.295
0.00656901	149.725
0.00660693	150.157
0.00664508	150.59
0.00668344	151.024
0.00672202	151.459
0.00676083	151.896
0.00679986	152.333
0.00683912	152.772
0.0068786	153.213
0.00691831	153.654
0.00695825	154.097
0.00699842	154.539
0.00703882	154.974
0.00707946	155.41
0.00712033	155.847
0.00716143	156.285
0.00720278	156.725
0.00724436	157.166
0.00728618	157.608
0.00732825	158.052
0.00737055	158.496
0.0074131	158.942
0.0074559	159.39
0.00749894	159.838
0.00754223	160.288
0.00758578	160.74
0.00762957	161.192
0.00767361	161.646
0.00771792	162.101
0.00776247	162.557
0.00780728	163.015
0.00785236	163.474
0.00789769	163.935
0.00794328	164.396
0.00798914	164.859
0.00803526	165.324
0.00808165	165.79
0.00812831	166.257
0.00817523	166.725
0.00822243	167.195
0.0082699	167.666
0.00831764	168.138
0.00836566	168.612
0.00841395	169.087
0.00846253	169.564
0.00851138	170.042
0.00856052	170.521
0.00860994	171.002
0.00865964	171.484
0.00870964	171.968
0.00875992	172.452
0.00881049	172.939
0.00886135	173.426
0.00891251	173.916
0.00896396	174.406
0.00901571	174.898
0.00906776	175.391
0.00912011	175.886
0.00917276	176.382
0.00922571	176.88
0.00927897	177.379
0.00933254	177.879
0.00938642	178.381
0.00944061	178.885
0.00949511	179.39
0.00954993	179.896
0.00960506	180.404
0.00966051	180.913
0.00971628	181.424
0.00977237	181.936
0.00982879	182.449
0.00988553	182.965
0.0099426	183.481
0.01	183.999
0.0100577	184.519
0.0101158	185.04
0.0101742	185.563
0.0102329	186.087
0.010292	186.613
0.0103514	187.14
0.0104112	187.668
0.0104713	188.199
0.0105317	188.731
0.0105925	189.264
0.0106537	189.799
0.0107152	190.335
0.0107771	190.873
0.0108393	191.413
0.0109018	191.954
0.0109648	192.496
0.0110281	193.04
0.0110917	193.586
0.0111558	194.134
0.0112202	194.682
0.011285	195.233
0.0113501	195.785
0.0114156	196.339
0.0114815	196.894
0.0115478	197.451
0.0116145	198.01
0.0116815	198.57
0.011749	199.132
0.0118168	199.695
0.011885	200.26
0.0119536	200.827
0.0120226	201.395
0.0120921	201.965
0.0121619	202.537
0.0122321	203.11
0.0123027	203.685
0.0123737	204.261
0.0124451	204.84
0.012517	205.42
0.0125893	206.001
0.0126619	206.585
0.012735	207.17
0.0128086	207.756
0.0128825	208.345
0.0129569	208.935
0.0130317	209.527
0.0131069	210.12
0.0131826	210.716
0.0132587	211.313
0.0133352	211.911
0.0134122	212.512
0.0134896	213.114
0.0135675	213.718
0.0136458	214.324
0.0137246	214.931
0.0138038	215.54
0.0138835	216.151
0.0139637	216.764
0.0140443	217.379
0.0141254	217.995
0.0142069	218.613
0.0142889	219.233
0.0143714	219.855
0.0144544	220.478
0.0145378	221.103
0.0146218	221.731
0.0147062	222.36
0.0147911	222.99
0.0148765	223.623
0.0149624	224.257
0.0150487	224.894
0.0151356	225.532
0.015223	226.172
0.0153109	226.814
0.0153993	227.457
0.0154882	228.103
0.0155776	228.751
0.0156675	229.4
0.015758	230.051
0.0158489	230.704
0.0159404	231.359
0.0160325	232.016
0.016125	232.675
0.0162181	233.336
0.0163117	233.999
0.0164059	234.663
0.0165006	235.33
0.0165959	235.998
0.0166917	236.669
0.016788	237.341
0.016885	238.015
0.0169824	238.692
0.0170805	239.37
0.0171791	240.05
0.0172783	240.733
0.017378	241.417
0.0174783	242.103
0.0175792	242.791
0.0176807	243.481
0.0177828	244.174
0.0178855	244.868
0.0179887	245.564
0.0180926	246.262
0.018197	246.963
0.0183021	247.665
0.0184077	248.37
0.018514	249.076
0.0186209	249.784
0.0187284	250.495
0.0188365	251.208
0.0189452	251.922
0.0190546	252.639
0.0191646	253.358
0.0192752	254.079
0.0193865	254.802
0.0194984	255.527
0.019611	256.255
0.0197242	256.984
0.0198381	257.716
0.0199526	258.45
0.0200678	259.185
0.0201837	259.923
0.0203002	260.663
0.0204174	261.406
0.0205353	262.15
0.0206538	262.897
0.020773	263.646
0.020893	264.397
0.0210136	265.15
0.0211349	265.905
0.0212569	266.663
0.0213796	267.423
0.021503	268.185
0.0216272	268.949
0.021752	269.715
0.0218776	270.484
0.0220039	271.255
0.0221309	272.028
0.0222587	272.804
0.0223872	273.581
0.0225165	274.361
0.0226464	275.144
0.0227772	275.928
0.0229087	276.715
0.0230409	277.504
0.0231739	278.296
0.0233077	279.09
0.0234423	279.886
0.0235776	280.684
0.0237137	281.485
0.0238506	282.288
0.0239883	283.093
0.0241268	283.901
0.0242661	284.711
0.0244062	285.524
0.0245471	286.339
0.0246888	287.156
0.0248313	287.976
0.0249747	288.798
0.0251189	289.622
0.0252639	290.449
0.0254097	291.278
0.0255564	292.11
0.025704	292.944
0.0258523	293.781
0.0260016	294.62
0.0261517	295.462
0.0263027	296.306
0.0264545	297.152
0.0266073	298.001
0.0267609	298.852
0.0269153	299.706
0.0270707	300.563
0.027227	301.421
0.0273842	302.283
0.0275423	303.147
0.0277013	304.013
0.0278612	304.882
0.0280221	305.534
0.0281838	305.737
0.0283465	305.942
0.0285102	306.149
0.0286748	306.358
0.0288403	306.57
0.0290068	306.783
0.0291743	306.999
0.0293427	307.216
0.0295121	307.436
0.0296825	307.658
0.0298538	307.881
0.0300262	308.107
0.0301995	308.334
0.0303739	308.563
0.0305492	308.794
0.0307256	309.027
0.030903	309.262
0.0310814	309.498
0.0312608	309.736
0.0314413	309.976
0.0316228	310.218
0.0318053	310.461
0.031989	310.706
0.0321736	310.953
0.0323594	311.201
0.0325462	311.451
0.0327341	311.702
0.032923	311.955
0.0331131	312.21
0.0333043	312.466
0.0334965	312.724
0.0336899	312.983
0.0338844	313.243
0.03408	313.506
0.0342768	313.769
0.0344747	314.034
0.0346737	314.3
0.0348739	314.568
0.0350752	314.837
0.0352777	315.108
0.0354813	315.38
0.0356862	315.653
0.0358922	315.928
0.0360994	316.204
0.0363078	316.481
0.0365174	316.76
0.0367282	317.039
0.0369403	317.321
0.0371535	317.603
0.037368	317.887
0.0375837	318.172
0.0378007	318.458
0.0380189	318.745
0.0382384	319.034
0.0384592	319.323
0.0386812	319.614
0.0389045	319.907
0.0391291	320.2
0.039355	320.494
0.0395822	320.79
0.0398107	321.087
0.0400405	321.385
0.0402717	321.684
0.0405042	321.985
0.040738	322.286
0.0409732	322.588
0.0412098	322.892
0.0414477	323.197
0.0416869	323.503
0.0419276	323.81
0.0421697	324.118
0.0424131	324.427
0.042658	324.737
0.0429042	325.049
0.0431519	325.361
0.043401	325.674
0.0436516	325.989
0.0439036	326.305
0.044157	326.621
0.044412	326.939
0.0446684	327.258
0.0449262	327.578
0.0451856	327.899
0.0454465	328.22
0.0457088	328.543
0.0459727	328.867
0.0462381	329.193
0.046505	329.519
0.0467735	329.846
0.0470435	330.174
0.0473151	330.503
0.0475883	330.834
0.047863	331.165
0.0481393	331.497
0.0484172	331.831
0.0486968	332.165
0.0489779	332.5
0.0492606	332.837
0.049545	333.174
0.049831	333.513
0.0501187	333.853
0.0504081	334.193
0.0506991	334.535
0.0509918	334.878
0.0512861	335.221
0.0515822	335.566
0.05188	335.912
0.0521795	336.259
0.0524807	336.607
0.0527837	336.956
0.0530884	337.306
0.0533949	337.657
0.0537032	338.009
0.0540132	338.362
0.054325	338.717
0.0546387	339.072
0.0549541	339.428
0.0552713	339.786
0.0555904	340.144
0.0559114	340.504
0.0562341	340.865
0.0565588	341.227
0.0568853	341.59
0.0572137	341.954
0.057544	342.319
0.0578762	342.685
0.0582103	343.052
0.0585464	343.421
0.0588844	343.79
0.0592243	344.161
0.0595662	344.532
0.0599101	344.905
0.060256	345.279
0.0606038	345.655
0.0609537	346.031
0.0613056	346.408
0.0616595	346.787
0.0620155	347.167
0.0623735	347.548
0.0627336	347.93
0.0630957	348.313
0.06346	348.698
0.0638263	349.083
0.0641948	349.47
0.0645654	349.858
0.0649382	350.247
0.0653131	350.638
0.0656901	351.03
0.0660693	351.422
0.0664508	351.817
0.0668344	352.212
0.0672202	352.609
0.0676083	353.006
0.0679986	353.406
0.0683912	353.806
0.068786	354.208
0.0691831	354.611
0.0695825	355.015
0.0699842	355.42
0.0703882	355.827
0.0707946	356.235
0.0712033	356.645
0.0716143	357.055
0.0720278	357.468
0.0724436	357.881
0.0728618	358.296
0.0732825	358.712
0.0737055	359.129
0.074131	359.548
0.074559	359.968
0.0749894	360.39
0.0754223	360.813
0.0758578	361.237
0.0762957	361.663
0.0767361	362.09
0.0771792	362.519
0.0776247	362.949
0.0780728	363.38
0.0785236	363.813
0.0789769	364.248
0.0794328	364.683
0.0798914	365.121
0.0803526	365.56
0.0808165	366
0.0812831	366.442
0.0817523	366.885
0.0822243	367.33
0.082699	367.776
0.0831764	368.224
0.0836566	368.673
0.0841395	369.124
0.0846253	369.576
0.0851138	370.03
0.0856052	370.486
0.0860994	370.943
0.0865964	371.402
0.0870964	371.862
0.0875992	372.324
0.0881049	372.788
0.0886135	373.253
0.0891251	373.72
0.0896396	374.189
0.0901571	374.659
0.0906776	375.13
0.0912011	375.604
0.0917276	376.079
0.0922571	376.556
0.0927897	377.035
0.0933254	377.515
0.0938642	377.997
0.0944061	378.48
0.0949511	378.966
0.0954993	379.453
0.0960506	379.942
0.0966051	380.433
0.0971628	380.925
0.0977237	381.419
0.0982879	381.915
0.0988553	382.413
0.099426	382.913
0.1	383.414
0.100577	383.918
0.101158	384.423
0.101742	384.93
0.102329	385.439
0.10292	385.949
0.103514	386.462
0.104112	386.976
0.104713	387.493
0.105317	388.011
0.105925	388.531
0.106537	389.053
0.107152	389.577
0.107771	390.103
0.108393	390.631
0.109018	391.161
0.109648	391.693
0.110281	392.227
0.110917	392.763
0.111558	393.3
0.112202	393.84
0.11285	394.382
0.113501	394.926
0.114156	395.472
0.114815	396.02
0.115478	396.57
0.116145	397.122
0.116815	397.676
0.11749	398.233
0.118168	398.791
0.11885	399.351
0.119536	399.914
0.120226	400.479
0.120921	401.046
0.121619	401.615
0.122321	402.186
0.123027	402.759
0.123737	403.335
0.124451	403.912
0.12517	404.492
0.125893	405.074
0.126619	405.659
0.12735	406.245
0.128086	406.834
0.128825	407.425
0.129569	408.018
0.130317	408.614
0.131069	409.211
0.131826	409.811
0.132587	410.414
0.133352	411.018
0.134122	411.625
0.134896	412.235
0.135675	412.846
0.136458	413.46
0.137246	414.077
0.138038	414.695
0.138835	415.316
0.139637	415.94
0.140443	416.566
0.141254	417.194
0.142069	417.824
0.142889	418.457
0.143714	419.093
0.144544	419.731
0.145378	420.371
0.146218	421.014
0.147062	421.659
0.147911	422.307
0.148765	422.957
0.149624	423.61
0.150487	424.265
0.151356	424.923
0.15223	425.583
0.153109	426.246
0.153993	426.911
0.154882	427.579
0.155776	428.249
0.156675	428.922
0.15758	429.598
0.158489	430.276
0.159404	430.957
0.160325	431.64
0.16125	432.326
0.162181	433.015
0.163117	433.706
0.164059	434.4
0.165006	435.097
0.165959	435.796
0.166917	436.498
0.16788	437.202
0.16885	437.91
0.169824	438.62
0.170805	439.332
0.171791	440.048
0.172783	440.766
0.17378	441.487
0.174783	442.21
0.175792	442.937
0.176807	443.666
0.177828	444.398
0.178855	445.133
0.179887	445.87
0.180926	446.61
0.18197	447.354
0.183021	448.099
0.184077	448.848
0.18514	449.6
0.186209	450.354
0.187284	451.112
0.188365	451.872
0.189452	452.635
0.190546	453.401
0.191646	454.17
0.192752	454.941
0.193865	455.716
0.194984	456.493
0.19611	457.274
0.197242	458.057
0.198381	458.844
0.199526	459.633
0.200678	460.425
0.201837	461.221
0.203002	462.019
0.204174	462.82
0.205353	463.624
0.206538	464.431
0.20773	465.242
0.20893	466.055
0.210136	466.871
0.211349	467.69
0.212569	468.513
0.213796	469.338
0.21503	470.167
0.216272	470.998
0.21752	471.833
0.218776	472.671
0.220039	473.511
0.221309	474.355
0.222587	475.202
0.223872	476.052
0.225165	476.906
0.226464	477.762
0.227772	478.622
0.229087	479.484
0.230409	480.35
0.231739	481.219
0.233077	482.091
0.234423	482.967
0.235776	483.845
0.237137	484.727
0.238506	485.612
0.239883	486.5
0.241268	487.392
0.242661	488.286
0.244062	489.184
0.245471	490.085
0.246888	490.99
0.248313	491.897
0.249747	492.808
0.251189	493.722
0.252639	494.64
0.254097	495.56
0.255564	496.484
0.25704	497.412
0.258523	498.342
0.260016	499.276
0.261517	500.213
0.263027	501.154
0.264545	502.098
0.266073	503.045
0.267609	503.996
0.269153	504.949
0.270707	505.907
0.27227	506.867
0.273842	507.831
0.275423	508.799
0.277013	509.769
0.278612	510.744
0.280221	511.721
0.281838	512.702
0.283465	513.686
0.285102	514.674
0.286748	515.665
0.288403	516.66
0.290068	517.658
0.291743	518.659
0.293427	519.664
0.295121	520.672
0.296825	521.684
0.298538	522.699
0.300262	523.718
0.301995	524.74
0.303739	525.766
0.305492	526.795
0.307256	527.827
0.30903	528.863
0.310814	529.903
0.312608	530.946
0.314413	531.992
0.316228	533.042
0.318053	534.095
0.31989	535.152
0.321736	536.213
0.323594	537.277
0.325462	538.344
0.327341	539.415
0.32923	540.49
0.331131	541.568
0.333043	542.65
0.334965	543.735
0.336899	544.823
0.338844	545.916
0.3408	547.011
0.342768	548.111
0.344747	549.213
0.346737	550.32
0.348739	551.43
0.350752	552.543
0.352777	553.66
0.354813	554.781
0.356862	555.905
0.358922	557.032
0.360994	558.164
0.363078	559.298
0.365174	560.437
0.367282	561.579
0.369403	562.724
0.371535	563.873
0.37368	565.026
0.375837	566.182
0.378007	567.342
0.380189	568.505
0.382384	569.672
0.384592	570.842
0.386812	572.016
0.389045	573.194
0.391291	574.375
0.39355	575.56
0.395822	576.748
0.398107	577.94
0.400405	579.135
0.402717	580.334
0.405042	581.536
0.40738	582.743
0.409732	583.952
0.412098	585.165
0.414477	586.382
0.416869	587.602
0.419276	588.826
0.421697	590.053
0.424131	591.284
0.42658	592.518
0.429042	593.756
0.431519	594.998
0.43401	596.243
0.436516	597.491
0.439036	598.743
0.44157	599.998
0.44412	601.257
0.446684	602.52
0.449262	603.786
0.451856	605.055
0.454465	606.328
0.457088	607.605
0.459727	608.884
0.462381	610.168
0.46505	611.454
0.467735	612.745
0.470435	614.038
0.473151	615.335
0.475883	616.636
0.47863	617.94
0.481393	619.247
0.484172	620.558
0.486968	621.872
0.489779	623.19
0.492606	624.511
0.49545	625.835
0.49831	627.163
0.501187	628.494
0.504081	629.828
0.506991	631.166
0.509918	632.507
0.512861	633.851
0.515822	635.198
0.5188	636.549
0.521795	637.903
0.524807	639.261
0.527837	640.621
0.530884	641.985
0.533949	643.352
0.537032	644.723
0.540132	646.096
0.54325	647.473
0.546387	648.853
0.549541	650.236
0.552713	651.622
0.555904	653.011
0.559114	654.403
0.562341	655.799
0.565588	657.197
0.568853	658.599
0.572137	660.003
0.57544	661.411
0.578762	662.821
0.582103	664.235
0.585464	665.652
0.588844	667.071
0.592243	669.304
0.595662	672.34
0.599101	675.399
0.60256	678.48
0.606038	681.583
0.609537	684.709
