Stopping power dEdx from Ionisation for Ti48[0.0] Z = 22 in G4_TISSUE_SOFT_ICRP, process name: ionIoni
E [MeV]	dEdx [MeV/mm]
0.001	65.0201
0.00100577	65.2075
0.00101158	65.3955
0.00101742	65.584
0.00102329	65.773
0.0010292	65.9626
0.00103514	66.1527
0.00104112	66.3434
0.00104713	66.5346
0.00105317	66.7264
0.00105925	66.9188
0.00106537	67.1116
0.00107152	67.3051
0.00107771	67.4991
0.00108393	67.6936
0.00109018	67.8888
0.00109648	68.0844
0.00110281	68.2807
0.00110917	68.4775
0.00111558	68.6749
0.00112202	68.8728
0.0011285	69.0713
0.00113501	69.2704
0.00114156	69.4701
0.00114815	69.6703
0.00115478	69.8711
0.00116145	70.0725
0.00116815	70.2745
0.0011749	70.4771
0.00118168	70.6802
0.0011885	70.8839
0.00119536	71.0883
0.00120226	71.2932
0.00120921	71.4986
0.00121619	71.7047
0.00122321	71.9114
0.00123027	72.1187
0.00123737	72.3266
0.00124451	72.535
0.0012517	72.7441
0.00125893	72.9538
0.00126619	73.1641
0.0012735	73.375
0.00128086	73.5864
0.00128825	73.7985
0.00129569	74.0113
0.00130317	74.2246
0.00131069	74.4385
0.00131826	74.6531
0.00132587	74.8683
0.00133352	75.0841
0.00134122	75.3005
0.00134896	75.5175
0.00135675	75.7352
0.00136458	75.9535
0.00137246	76.1724
0.00138038	76.392
0.00138835	76.6122
0.00139637	76.833
0.00140443	77.0545
0.00141254	77.2766
0.00142069	77.4993
0.00142889	77.7227
0.00143714	77.9467
0.00144544	78.1714
0.00145378	78.3967
0.00146218	78.6227
0.00147062	78.8493
0.00147911	79.0766
0.00148765	79.3045
0.00149624	79.5331
0.00150487	79.7623
0.00151356	79.9922
0.0015223	80.2228
0.00153109	80.454
0.00153993	80.6859
0.00154882	80.9185
0.00155776	81.1517
0.00156675	81.3856
0.0015758	81.6202
0.00158489	81.8555
0.00159404	82.0914
0.00160325	82.328
0.0016125	82.5654
0.00162181	82.8033
0.00163117	83.042
0.00164059	83.2814
0.00165006	83.5214
0.00165959	83.7622
0.00166917	84.0036
0.0016788	84.2457
0.0016885	84.4885
0.00169824	84.7321
0.00170805	84.9763
0.00171791	85.2212
0.00172783	85.4669
0.0017378	85.7132
0.00174783	85.9603
0.00175792	86.2081
0.00176807	86.4565
0.00177828	86.7057
0.00178855	86.9557
0.00179887	87.2063
0.00180926	87.4577
0.0018197	87.7097
0.00183021	87.9626
0.00184077	88.2161
0.0018514	88.4704
0.00186209	88.7254
0.00187284	88.9811
0.00188365	89.2376
0.00189452	89.4948
0.00190546	89.7528
0.00191646	90.0115
0.00192752	90.2709
0.00193865	90.5311
0.00194984	90.7921
0.0019611	91.0537
0.00197242	91.3162
0.00198381	91.5794
0.00199526	91.8434
0.00200678	92.1081
0.00201837	92.3736
0.00203002	92.6398
0.00204174	92.9069
0.00205353	93.1747
0.00206538	93.4432
0.0020773	93.7126
0.0020893	93.9827
0.00210136	94.2536
0.00211349	94.5252
0.00212569	94.7977
0.00213796	95.0709
0.0021503	95.345
0.00216272	95.6198
0.0021752	95.8954
0.00218776	96.1718
0.00220039	96.449
0.00221309	96.727
0.00222587	97.0058
0.00223872	97.2854
0.00225165	97.5658
0.00226464	97.8471
0.00227772	98.1291
0.00229087	98.4119
0.00230409	98.6956
0.00231739	98.9801
0.00233077	99.2654
0.00234423	99.5515
0.00235776	99.8384
0.00237137	100.126
0.00238506	100.415
0.00239883	100.704
0.00241268	100.995
0.00242661	101.286
0.00244062	101.578
0.00245471	101.87
0.00246888	102.164
0.00248313	102.458
0.00249747	102.754
0.00251189	103.05
0.00252639	103.347
0.00254097	103.645
0.00255564	103.944
0.0025704	104.243
0.00258523	104.544
0.00260016	104.845
0.00261517	105.147
0.00263027	105.45
0.00264545	105.754
0.00266073	106.059
0.00267609	106.365
0.00269153	106.671
0.00270707	106.979
0.0027227	107.287
0.00273842	107.596
0.00275423	107.907
0.00277013	108.218
0.00278612	108.53
0.00280221	108.842
0.00281838	109.156
0.00283465	109.471
0.00285102	109.786
0.00286748	110.103
0.00288403	110.42
0.00290068	110.738
0.00291743	111.057
0.00293427	111.378
0.00295121	111.699
0.00296825	112.021
0.00298538	112.343
0.00300262	112.667
0.00301995	112.992
0.00303739	113.318
0.00305492	113.644
0.00307256	113.972
0.0030903	114.3
0.00310814	114.63
0.00312608	114.96
0.00314413	115.292
0.00316228	115.624
0.00318053	115.957
0.0031989	116.291
0.00321736	116.627
0.00323594	116.963
0.00325462	117.3
0.00327341	117.638
0.0032923	117.977
0.00331131	118.317
0.00333043	118.658
0.00334965	119
0.00336899	119.343
0.00338844	119.687
0.003408	120.032
0.00342768	120.378
0.00344747	120.725
0.00346737	121.073
0.00348739	121.422
0.00350752	121.772
0.00352777	122.123
0.00354813	122.475
0.00356862	122.828
0.00358922	123.182
0.00360994	123.537
0.00363078	123.893
0.00365174	124.25
0.00367282	124.609
0.00369403	124.968
0.00371535	125.328
0.0037368	125.689
0.00375837	126.051
0.00378007	126.415
0.00380189	126.779
0.00382384	127.145
0.00384592	127.511
0.00386812	127.879
0.00389045	128.247
0.00391291	128.617
0.0039355	128.988
0.00395822	129.359
0.00398107	129.732
0.00400405	130.106
0.00402717	130.481
0.00405042	130.857
0.0040738	131.234
0.00409732	131.613
0.00412098	131.992
0.00414477	132.373
0.00416869	132.754
0.00419276	133.137
0.00421697	133.52
0.00424131	133.905
0.0042658	134.291
0.00429042	134.678
0.00431519	135.067
0.0043401	135.456
0.00436516	135.846
0.00439036	136.238
0.0044157	136.631
0.0044412	137.024
0.00446684	137.419
0.00449262	137.815
0.00451856	138.213
0.00454465	138.611
0.00457088	139.011
0.00459727	139.411
0.00462381	139.813
0.0046505	140.216
0.00467735	140.62
0.00470435	141.026
0.00473151	141.432
0.00475883	141.84
0.0047863	142.249
0.00481393	142.659
0.00484172	143.07
0.00486968	143.482
0.00489779	143.896
0.00492606	144.31
0.0049545	144.726
0.0049831	145.144
0.00501187	145.562
0.00504081	145.982
0.00506991	146.402
0.00509918	146.824
0.00512861	147.247
0.00515822	147.672
0.005188	148.098
0.00521795	148.524
0.00524807	148.953
0.00527837	149.382
0.00530884	149.812
0.00533949	150.244
0.00537032	150.677
0.00540132	151.112
0.0054325	151.547
0.00546387	151.984
0.00549541	152.422
0.00552713	152.861
0.00555904	153.302
0.00559114	153.744
0.00562341	154.187
0.00565588	154.631
0.00568853	155.077
0.00572137	155.524
0.0057544	155.972
0.00578762	156.422
0.00582103	156.873
0.00585464	157.325
0.00588844	157.779
0.00592243	158.233
0.00595662	158.689
0.00599101	159.147
0.0060256	159.605
0.00606038	160.066
0.00609537	160.527
0.00613056	160.99
0.00616595	161.454
0.00620155	161.919
0.00623735	162.386
0.00627336	162.854
0.00630957	163.323
0.006346	163.794
0.00638263	164.266
0.00641948	164.74
0.00645654	165.214
0.00649382	165.691
0.00653131	166.168
0.00656901	166.647
0.00660693	167.127
0.00664508	167.609
0.00668344	168.092
0.00672202	168.577
0.00676083	169.063
0.00679986	169.55
0.00683912	170.039
0.0068786	170.529
0.00691831	171.02
0.00695825	171.513
0.00699842	172.008
0.00703882	172.503
0.00707946	173.001
0.00712033	173.499
0.00716143	173.999
0.00720278	174.501
0.00724436	175.004
0.00728618	175.508
0.00732825	176.014
0.00737055	176.522
0.0074131	177.03
0.0074559	177.541
0.00749894	178.052
0.00754223	178.566
0.00758578	179.08
0.00762957	179.596
0.00767361	180.114
0.00771792	180.633
0.00776247	181.154
0.00780728	181.676
0.00785236	182.2
0.00789769	182.725
0.00794328	183.252
0.00798914	183.78
0.00803526	184.31
0.00808165	184.841
0.00812831	185.374
0.00817523	185.908
0.00822243	186.444
0.0082699	186.981
0.00831764	187.52
0.00836566	188.061
0.00841395	188.603
0.00846253	189.146
0.00851138	189.691
0.00856052	190.238
0.00860994	190.787
0.00865964	191.337
0.00870964	191.888
0.00875992	192.441
0.00881049	192.996
0.00886135	193.552
0.00891251	194.11
0.00896396	194.669
0.00901571	195.231
0.00906776	195.793
0.00912011	196.358
0.00917276	196.924
0.00922571	197.491
0.00927897	198.06
0.00933254	198.631
0.00938642	199.204
0.00944061	199.778
0.00949511	200.354
0.00954993	200.931
0.00960506	201.511
0.00966051	202.091
0.00971628	202.674
0.00977237	203.258
0.00982879	203.844
0.00988553	204.432
0.0099426	205.021
0.01	205.612
0.0100577	206.204
0.0101158	206.799
0.0101742	207.395
0.0102329	207.993
0.010292	208.592
0.0103514	209.193
0.0104112	209.796
0.0104713	210.401
0.0105317	211.007
0.0105925	211.616
0.0106537	212.226
0.0107152	212.837
0.0107771	213.451
0.0108393	214.066
0.0109018	214.683
0.0109648	215.302
0.0110281	215.922
0.0110917	216.545
0.0111558	217.169
0.0112202	217.795
0.011285	218.423
0.0113501	219.052
0.0114156	219.684
0.0114815	220.317
0.0115478	220.952
0.0116145	221.589
0.0116815	222.228
0.011749	222.868
0.0118168	223.51
0.011885	224.155
0.0119536	224.801
0.0120226	225.439
0.0120921	226.073
0.0121619	226.709
0.0122321	227.347
0.0123027	227.986
0.0123737	228.628
0.0124451	229.271
0.012517	229.916
0.0125893	230.563
0.0126619	231.212
0.012735	231.863
0.0128086	232.515
0.0128825	233.17
0.0129569	233.826
0.0130317	234.484
0.0131069	235.144
0.0131826	235.807
0.0132587	236.47
0.0133352	237.136
0.0134122	237.804
0.0134896	238.474
0.0135675	239.145
0.0136458	239.819
0.0137246	240.494
0.0138038	241.172
0.0138835	241.851
0.0139637	242.533
0.0140443	243.216
0.0141254	243.901
0.0142069	244.589
0.0142889	245.278
0.0143714	245.969
0.0144544	246.662
0.0145378	247.358
0.0146218	248.055
0.0147062	248.754
0.0147911	249.455
0.0148765	250.159
0.0149624	250.864
0.0150487	251.571
0.0151356	252.281
0.015223	252.992
0.0153109	253.706
0.0153993	254.421
0.0154882	255.139
0.0155776	255.859
0.0156675	256.58
0.015758	257.304
0.0158489	258.03
0.0159404	258.758
0.0160325	259.488
0.016125	260.221
0.0162181	260.955
0.0163117	261.691
0.0164059	262.43
0.0165006	263.171
0.0165959	263.914
0.0166917	264.659
0.016788	265.406
0.016885	266.155
0.0169824	266.907
0.0170805	267.66
0.0171791	268.416
0.0172783	269.174
0.017378	269.935
0.0174783	270.697
0.0175792	271.462
0.0176807	272.229
0.0177828	272.998
0.0178855	273.769
0.0179887	274.542
0.0180926	275.318
0.018197	276.096
0.0183021	276.876
0.0184077	277.659
0.018514	278.444
0.0186209	279.231
0.0187284	280.02
0.0188365	280.812
0.0189452	281.606
0.0190546	282.402
0.0191646	283.2
0.0192752	284.001
0.0193865	284.804
0.0194984	285.61
0.019611	286.417
0.0197242	287.228
0.0198381	288.04
0.0199526	288.855
0.0200678	289.672
0.0201837	290.492
0.0203002	291.314
0.0204174	292.138
0.0205353	292.965
0.0206538	293.794
0.020773	294.625
0.020893	295.459
0.0210136	296.295
0.0211349	297.134
0.0212569	297.975
0.0213796	298.819
0.021503	299.665
0.0216272	300.513
0.021752	301.364
0.0218776	302.218
0.0220039	303.074
0.0221309	303.932
0.0222587	304.793
0.0223872	305.656
0.0225165	306.522
0.0226464	307.391
0.0227772	308.262
0.0229087	309.135
0.0230409	310.011
0.0231739	310.889
0.0233077	311.771
0.0234423	312.654
0.0235776	313.54
0.0237137	314.429
0.0238506	315.32
0.0239883	316.214
0.0241268	317.111
0.0242661	318.01
0.0244062	318.912
0.0245471	319.816
0.0246888	320.723
0.0248313	321.633
0.0249747	322.545
0.0251189	323.46
0.0252639	324.377
0.0254097	325.298
0.0255564	326.22
0.025704	327.146
0.0258523	328.074
0.0260016	329.005
0.0261517	329.939
0.0263027	330.875
0.0264545	331.814
0.0266073	332.756
0.0267609	333.701
0.0269153	334.648
0.0270707	335.598
0.027227	336.551
0.0273842	337.507
0.0275423	338.465
0.0277013	339.426
0.0278612	340.39
0.0280221	341.357
0.0281838	342.326
0.0283465	343.299
0.0285102	344.274
0.0286748	345.252
0.0288403	346.233
0.0290068	347.217
0.0291743	348.203
0.0293427	349.193
0.0295121	350.185
0.0296825	351.181
0.0298538	352.179
0.0300262	353.18
0.0301995	354.184
0.0303739	355.191
0.0305492	356.201
0.0307256	357.213
0.030903	358.229
0.0310814	359.248
0.0312608	360.269
0.0314413	361.294
0.0316228	362.322
0.0318053	363.352
0.031989	364.386
0.0321736	365.423
0.0323594	366.462
0.0325462	367.505
0.0327341	368.551
0.032923	369.599
0.0331131	370.651
0.0333043	371.706
0.0334965	372.764
0.0336899	373.825
0.0338844	374.889
0.03408	375.957
0.0342768	377.027
0.0344747	378.1
0.0346737	379.177
0.0348739	380.257
0.0350752	381.34
0.0352777	382.426
0.0354813	383.515
0.0356862	384.607
0.0358922	385.703
0.0360994	386.802
0.0363078	387.904
0.0365174	389.009
0.0367282	390.117
0.0369403	391.229
0.0371535	392.344
0.037368	393.462
0.0375837	394.584
0.0378007	395.708
0.0380189	396.836
0.0382384	397.967
0.0384592	399.102
0.0386812	400.24
0.0389045	401.381
0.0391291	402.526
0.039355	403.674
0.0395822	404.825
0.0398107	405.98
0.0400405	407.138
0.0402717	408.299
0.0405042	409.464
0.040738	410.632
0.0409732	411.804
0.0412098	412.979
0.0414477	414.157
0.0416869	415.339
0.0419276	416.524
0.0421697	417.713
0.0424131	418.905
0.042658	420.101
0.0429042	421.3
0.0431519	422.503
0.043401	423.709
0.0436516	424.919
0.0439036	426.133
0.044157	427.35
0.044412	428.57
0.0446684	429.794
0.0449262	431.022
0.0451856	432.253
0.0454465	433.488
0.0457088	434.726
0.0459727	435.968
0.0462381	437.214
0.046505	438.463
0.0467735	439.716
0.0470435	440.973
0.0473151	442.233
0.0475883	443.498
0.047863	444.765
0.0481393	445.317
0.0484172	445.614
0.0486968	445.914
0.0489779	446.217
0.0492606	446.524
0.049545	446.833
0.049831	447.145
0.0501187	447.461
0.0504081	447.779
0.0506991	448.1
0.0509918	448.424
0.0512861	448.751
0.0515822	449.081
0.05188	449.413
0.0521795	449.748
0.0524807	450.086
0.0527837	450.426
0.0530884	450.769
0.0533949	451.115
0.0537032	451.463
0.0540132	451.813
0.054325	452.166
0.0546387	452.522
0.0549541	452.88
0.0552713	453.24
0.0555904	453.603
0.0559114	453.968
0.0562341	454.335
0.0565588	454.705
0.0568853	455.077
0.0572137	455.451
0.057544	455.827
0.0578762	456.206
0.0582103	456.586
0.0585464	456.969
0.0588844	457.354
0.0592243	457.741
0.0595662	458.13
0.0599101	458.521
0.060256	458.914
0.0606038	459.309
0.0609537	459.706
0.0613056	460.105
0.0616595	460.506
0.0620155	460.909
0.0623735	461.314
0.0627336	461.72
0.0630957	462.129
0.06346	462.539
0.0638263	462.951
0.0641948	463.366
0.0645654	463.781
0.0649382	464.199
0.0653131	464.618
0.0656901	465.04
0.0660693	465.463
0.0664508	465.887
0.0668344	466.314
0.0672202	466.742
0.0676083	467.172
0.0679986	467.603
0.0683912	468.037
0.068786	468.472
0.0691831	468.908
0.0695825	469.346
0.0699842	469.786
0.0703882	470.228
0.0707946	470.671
0.0712033	471.116
0.0716143	471.562
0.0720278	472.01
0.0724436	472.459
0.0728618	472.911
0.0732825	473.363
0.0737055	473.818
0.074131	474.273
0.074559	474.731
0.0749894	475.19
0.0754223	475.65
0.0758578	476.112
0.0762957	476.576
0.0767361	477.041
0.0771792	477.508
0.0776247	477.976
0.0780728	478.446
0.0785236	478.917
0.0789769	479.39
0.0794328	479.864
0.0798914	480.34
0.0803526	480.817
0.0808165	481.296
0.0812831	481.776
0.0817523	482.258
0.0822243	482.742
0.082699	483.226
0.0831764	483.713
0.0836566	484.201
0.0841395	484.69
0.0846253	485.181
0.0851138	485.673
0.0856052	486.167
0.0860994	486.663
0.0865964	487.16
0.0870964	487.658
0.0875992	488.158
0.0881049	488.66
0.0886135	489.163
0.0891251	489.667
0.0896396	490.173
0.0901571	490.681
0.0906776	491.19
0.0912011	491.701
0.0917276	492.213
0.0922571	492.727
0.0927897	493.242
0.0933254	493.759
0.0938642	494.277
0.0944061	494.797
0.0949511	495.319
0.0954993	495.842
0.0960506	496.367
0.0966051	496.893
0.0971628	497.421
0.0977237	497.95
0.0982879	498.481
0.0988553	499.014
0.099426	499.548
0.1	500.084
0.100577	500.622
0.101158	501.161
0.101742	501.701
0.102329	502.244
0.10292	502.788
0.103514	503.333
0.104112	503.881
0.104713	504.43
0.105317	504.981
0.105925	505.533
0.106537	506.087
0.107152	506.643
0.107771	507.2
0.108393	507.759
0.109018	508.32
0.109648	508.883
0.110281	509.447
0.110917	510.014
0.111558	510.581
0.112202	511.151
0.11285	511.723
0.113501	512.296
0.114156	512.871
0.114815	513.448
0.115478	514.026
0.116145	514.607
0.116815	515.189
0.11749	515.773
0.118168	516.359
0.11885	516.947
0.119536	517.537
0.120226	518.129
0.120921	518.722
0.121619	519.318
0.122321	519.915
0.123027	520.514
0.123737	521.116
0.124451	521.719
0.12517	522.324
0.125893	522.931
0.126619	523.54
0.12735	524.151
0.128086	524.764
0.128825	525.38
0.129569	525.997
0.130317	526.616
0.131069	527.237
0.131826	527.86
0.132587	528.486
0.133352	529.113
0.134122	529.743
0.134896	530.374
0.135675	531.008
0.136458	531.644
0.137246	532.282
0.138038	532.923
0.138835	533.565
0.139637	534.21
0.140443	534.856
0.141254	535.505
0.142069	536.156
0.142889	536.81
0.143714	537.466
0.144544	538.124
0.145378	538.784
0.146218	539.446
0.147062	540.111
0.147911	540.778
0.148765	541.448
0.149624	542.119
0.150487	542.793
0.151356	543.47
0.15223	544.149
0.153109	544.83
0.153993	545.514
0.154882	546.2
0.155776	546.888
0.156675	547.579
0.15758	548.272
0.158489	548.968
0.159404	549.667
0.160325	550.367
0.16125	551.071
0.162181	551.777
0.163117	552.485
0.164059	553.196
0.165006	553.909
0.165959	554.625
0.166917	555.344
0.16788	556.065
0.16885	556.789
0.169824	557.516
0.170805	558.245
0.171791	558.976
0.172783	559.711
0.17378	560.448
0.174783	561.188
0.175792	561.93
0.176807	562.676
0.177828	563.424
0.178855	564.174
0.179887	564.928
0.180926	565.684
0.18197	566.443
0.183021	567.205
0.184077	567.97
0.18514	568.737
0.186209	569.508
0.187284	570.281
0.188365	571.057
0.189452	571.836
0.190546	572.618
0.191646	573.403
0.192752	574.191
0.193865	574.982
0.194984	575.776
0.19611	576.572
0.197242	577.372
0.198381	578.175
0.199526	578.98
0.200678	579.789
0.201837	580.601
0.203002	581.416
0.204174	582.234
0.205353	583.055
0.206538	583.879
0.20773	584.706
0.20893	585.536
0.210136	586.37
0.211349	587.207
0.212569	588.047
0.213796	588.89
0.21503	589.736
0.216272	590.585
0.21752	591.438
0.218776	592.294
0.220039	593.153
0.221309	594.016
0.222587	594.881
0.223872	595.751
0.225165	596.623
0.226464	597.499
0.227772	598.378
0.229087	599.26
0.230409	600.146
0.231739	601.035
0.233077	601.928
0.234423	602.824
0.235776	603.723
0.237137	604.626
0.238506	605.532
0.239883	606.442
0.241268	607.356
0.242661	608.272
0.244062	609.193
0.245471	610.116
0.246888	611.044
0.248313	611.975
0.249747	612.909
0.251189	613.847
0.252639	614.789
0.254097	615.734
0.255564	616.683
0.25704	617.636
0.258523	618.592
0.260016	619.552
0.261517	620.515
0.263027	621.483
0.264545	622.454
0.266073	623.428
0.267609	624.407
0.269153	625.389
0.270707	626.375
0.27227	627.365
0.273842	628.358
0.275423	629.356
0.277013	630.357
0.278612	631.362
0.280221	632.37
0.281838	633.383
0.283465	634.4
0.285102	635.42
0.286748	636.445
0.288403	637.473
0.290068	638.505
0.291743	639.541
0.293427	640.581
0.295121	641.625
0.296825	642.673
0.298538	643.725
0.300262	644.781
0.301995	645.841
0.303739	646.906
0.305492	647.974
0.307256	649.046
0.30903	650.122
0.310814	651.203
0.312608	652.287
0.314413	653.376
0.316228	654.468
0.318053	655.565
0.31989	656.666
0.321736	657.771
0.323594	658.881
0.325462	659.994
0.327341	661.112
0.32923	662.234
0.331131	663.36
0.333043	664.491
0.334965	665.625
0.336899	666.764
0.338844	667.908
0.3408	669.055
0.342768	670.207
0.344747	671.363
0.346737	672.524
0.348739	673.689
0.350752	674.858
0.352777	676.032
0.354813	677.21
0.356862	678.392
0.358922	679.579
0.360994	680.77
0.363078	681.966
0.365174	683.166
0.367282	684.37
0.369403	685.579
0.371535	686.793
0.37368	688.011
0.375837	689.233
0.378007	690.46
0.380189	691.692
0.382384	692.928
0.384592	694.168
0.386812	695.413
0.389045	696.663
0.391291	697.918
0.39355	699.176
0.395822	700.44
0.398107	701.708
0.400405	702.981
0.402717	704.258
0.405042	705.54
0.40738	706.827
0.409732	708.119
0.412098	709.415
0.414477	710.715
0.416869	712.021
0.419276	713.331
0.421697	714.646
0.424131	715.966
0.42658	717.29
0.429042	718.619
0.431519	719.953
0.43401	721.292
0.436516	722.636
0.439036	723.984
0.44157	725.337
0.44412	726.695
0.446684	728.058
0.449262	729.425
0.451856	730.798
0.454465	732.175
0.457088	733.557
0.459727	734.944
0.462381	736.336
0.46505	737.733
0.467735	739.135
0.470435	740.541
0.473151	741.953
0.475883	743.369
0.47863	744.791
0.481393	746.217
0.484172	747.649
0.486968	749.085
0.489779	750.526
0.492606	751.972
0.49545	753.424
0.49831	754.88
0.501187	756.341
0.504081	757.807
0.506991	759.279
0.509918	760.755
0.512861	762.236
0.515822	763.722
0.5188	765.214
0.521795	766.71
0.524807	768.212
0.527837	769.718
0.530884	771.23
0.533949	772.747
0.537032	774.269
0.540132	775.795
0.54325	777.327
0.546387	778.865
0.549541	780.407
0.552713	781.954
0.555904	783.506
0.559114	785.064
0.562341	786.627
0.565588	788.194
0.568853	789.767
0.572137	791.346
0.57544	792.929
0.578762	794.517
0.582103	796.111
0.585464	797.709
0.588844	799.313
0.592243	800.922
0.595662	802.536
0.599101	804.156
0.60256	805.78
0.606038	807.41
0.609537	809.045
