Stopping power dEdx from Ionisation for V51[0.0] Z = 23 in G4_Si, process name: ionIoni
E [MeV]	dEdx [MeV/mm]
0.001	29.6305
0.00100577	29.7165
0.00101158	29.8028
0.00101742	29.8894
0.00102329	29.9762
0.0010292	30.0632
0.00103514	30.1505
0.00104112	30.238
0.00104713	30.3258
0.00105317	30.4139
0.00105925	30.5022
0.00106537	30.5908
0.00107152	30.6796
0.00107771	30.7687
0.00108393	30.858
0.00109018	30.9476
0.00109648	31.0374
0.00110281	31.1275
0.00110917	31.2179
0.00111558	31.3085
0.00112202	31.3994
0.0011285	31.4905
0.00113501	31.5819
0.00114156	31.6736
0.00114815	31.7656
0.00115478	31.8578
0.00116145	31.9502
0.00116815	32.043
0.0011749	32.136
0.00118168	32.2292
0.0011885	32.3228
0.00119536	32.4166
0.00120226	32.5107
0.00120921	32.605
0.00121619	32.6996
0.00122321	32.7945
0.00123027	32.8897
0.00123737	32.9851
0.00124451	33.0809
0.0012517	33.1768
0.00125893	33.2731
0.00126619	33.3697
0.0012735	33.4665
0.00128086	33.5636
0.00128825	33.661
0.00129569	33.7587
0.00130317	33.8566
0.00131069	33.9548
0.00131826	34.0533
0.00132587	34.1521
0.00133352	34.2512
0.00134122	34.3506
0.00134896	34.4502
0.00135675	34.5502
0.00136458	34.6504
0.00137246	34.7509
0.00138038	34.8517
0.00138835	34.9528
0.00139637	35.0542
0.00140443	35.1559
0.00141254	35.2579
0.00142069	35.3601
0.00142889	35.4627
0.00143714	35.5656
0.00144544	35.6687
0.00145378	35.7722
0.00146218	35.8759
0.00147062	35.98
0.00147911	36.0843
0.00148765	36.189
0.00149624	36.2939
0.00150487	36.3992
0.00151356	36.5047
0.0015223	36.6106
0.00153109	36.7168
0.00153993	36.8233
0.00154882	36.93
0.00155776	37.0371
0.00156675	37.1445
0.0015758	37.2522
0.00158489	37.3602
0.00159404	37.4686
0.00160325	37.5772
0.0016125	37.6862
0.00162181	37.7954
0.00163117	37.905
0.00164059	38.0149
0.00165006	38.1251
0.00165959	38.2357
0.00166917	38.3465
0.0016788	38.4577
0.0016885	38.5692
0.00169824	38.681
0.00170805	38.7931
0.00171791	38.9056
0.00172783	39.0184
0.0017378	39.1315
0.00174783	39.2449
0.00175792	39.3587
0.00176807	39.4728
0.00177828	39.5872
0.00178855	39.7019
0.00179887	39.817
0.00180926	39.9324
0.0018197	40.0482
0.00183021	40.1642
0.00184077	40.2806
0.0018514	40.3974
0.00186209	40.5145
0.00187284	40.6319
0.00188365	40.7496
0.00189452	40.8677
0.00190546	40.9862
0.00191646	41.105
0.00192752	41.2241
0.00193865	41.3436
0.00194984	41.4634
0.0019611	41.5835
0.00197242	41.704
0.00198381	41.8249
0.00199526	41.9461
0.00200678	42.0676
0.00201837	42.1895
0.00203002	42.3118
0.00204174	42.4344
0.00205353	42.5573
0.00206538	42.6806
0.0020773	42.8043
0.0020893	42.9283
0.00210136	43.0527
0.00211349	43.1774
0.00212569	43.3025
0.00213796	43.428
0.0021503	43.5538
0.00216272	43.68
0.0021752	43.8065
0.00218776	43.9334
0.00220039	44.0607
0.00221309	44.1883
0.00222587	44.3163
0.00223872	44.4447
0.00225165	44.5735
0.00226464	44.7026
0.00227772	44.8321
0.00229087	44.962
0.00230409	45.0922
0.00231739	45.2228
0.00233077	45.3538
0.00234423	45.4852
0.00235776	45.6169
0.00237137	45.749
0.00238506	45.8816
0.00239883	46.0144
0.00241268	46.1477
0.00242661	46.2814
0.00244062	46.4154
0.00245471	46.5498
0.00246888	46.6847
0.00248313	46.8199
0.00249747	46.9555
0.00251189	47.0914
0.00252639	47.2278
0.00254097	47.3646
0.00255564	47.5018
0.0025704	47.6393
0.00258523	47.7773
0.00260016	47.9156
0.00261517	48.0544
0.00263027	48.1935
0.00264545	48.3331
0.00266073	48.473
0.00267609	48.6134
0.00269153	48.7542
0.00270707	48.8953
0.0027227	49.0369
0.00273842	49.1789
0.00275423	49.3213
0.00277013	49.4641
0.00278612	49.6073
0.00280221	49.7509
0.00281838	49.895
0.00283465	50.0395
0.00285102	50.1843
0.00286748	50.3296
0.00288403	50.4753
0.00290068	50.6215
0.00291743	50.768
0.00293427	50.915
0.00295121	51.0624
0.00296825	51.2102
0.00298538	51.3585
0.00300262	51.5071
0.00301995	51.6562
0.00303739	51.8058
0.00305492	51.9557
0.00307256	52.1061
0.0030903	52.257
0.00310814	52.4082
0.00312608	52.5599
0.00314413	52.7121
0.00316228	52.8647
0.00318053	53.0177
0.0031989	53.1711
0.00321736	53.325
0.00323594	53.4794
0.00325462	53.6342
0.00327341	53.7894
0.0032923	53.9451
0.00331131	54.1012
0.00333043	54.2578
0.00334965	54.4148
0.00336899	54.5723
0.00338844	54.7303
0.003408	54.8887
0.00342768	55.0475
0.00344747	55.2068
0.00346737	55.3666
0.00348739	55.5268
0.00350752	55.6875
0.00352777	55.8487
0.00354813	56.0103
0.00356862	56.1724
0.00358922	56.3349
0.00360994	56.4979
0.00363078	56.6614
0.00365174	56.8254
0.00367282	56.9898
0.00369403	57.1547
0.00371535	57.3201
0.0037368	57.486
0.00375837	57.6523
0.00378007	57.8191
0.00380189	57.9864
0.00382384	58.1542
0.00384592	58.3225
0.00386812	58.4912
0.00389045	58.6605
0.00391291	58.8302
0.0039355	59.0004
0.00395822	59.1711
0.00398107	59.3423
0.00400405	59.514
0.00402717	59.6862
0.00405042	59.8589
0.0040738	60.032
0.00409732	60.2057
0.00412098	60.3799
0.00414477	60.5546
0.00416869	60.7298
0.00419276	60.9054
0.00421697	61.0816
0.00424131	61.2583
0.0042658	61.4356
0.00429042	61.6133
0.00431519	61.7915
0.0043401	61.9703
0.00436516	62.1495
0.00439036	62.3293
0.0044157	62.5096
0.0044412	62.6904
0.00446684	62.8718
0.00449262	63.0536
0.00451856	63.236
0.00454465	63.4189
0.00457088	63.6024
0.00459727	63.7863
0.00462381	63.9708
0.0046505	64.1559
0.00467735	64.3414
0.00470435	64.5275
0.00473151	64.7142
0.00475883	64.9013
0.0047863	65.089
0.00481393	65.2773
0.00484172	65.4661
0.00486968	65.6554
0.00489779	65.8453
0.00492606	66.0358
0.0049545	66.2267
0.0049831	66.4183
0.00501187	66.6104
0.00504081	66.803
0.00506991	66.9962
0.00509918	67.1899
0.00512861	67.3842
0.00515822	67.5791
0.005188	67.7745
0.00521795	67.9705
0.00524807	68.1671
0.00527837	68.3642
0.00530884	68.5619
0.00533949	68.7602
0.00537032	68.959
0.00540132	69.1584
0.0054325	69.3584
0.00546387	69.559
0.00549541	69.7601
0.00552713	69.9618
0.00555904	70.1641
0.00559114	70.367
0.00562341	70.5705
0.00565588	70.7745
0.00568853	70.9792
0.00572137	71.1844
0.0057544	71.3902
0.00578762	71.5966
0.00582103	71.8036
0.00585464	72.0112
0.00588844	72.2195
0.00592243	72.4283
0.00595662	72.6377
0.00599101	72.8477
0.0060256	73.0583
0.00606038	73.2695
0.00609537	73.4813
0.00613056	73.6938
0.00616595	73.9068
0.00620155	74.1205
0.00623735	74.3348
0.00627336	74.5497
0.00630957	74.7652
0.006346	74.9814
0.00638263	75.1981
0.00641948	75.4155
0.00645654	75.6335
0.00649382	75.8522
0.00653131	76.0715
0.00656901	76.2914
0.00660693	76.5119
0.00664508	76.7331
0.00668344	76.9549
0.00672202	77.1774
0.00676083	77.4005
0.00679986	77.6242
0.00683912	77.8486
0.0068786	78.0736
0.00691831	78.2993
0.00695825	78.5256
0.00699842	78.7526
0.00703882	78.9803
0.00707946	79.2085
0.00712033	79.4375
0.00716143	79.6671
0.00720278	79.8974
0.00724436	80.1283
0.00728618	80.3599
0.00732825	80.5922
0.00737055	80.8251
0.0074131	81.0587
0.0074559	81.293
0.00749894	81.528
0.00754223	81.7636
0.00758578	81.9999
0.00762957	82.2369
0.00767361	82.4746
0.00771792	82.713
0.00776247	82.952
0.00780728	83.1918
0.00785236	83.4322
0.00789769	83.6733
0.00794328	83.9152
0.00798914	84.1577
0.00803526	84.4009
0.00808165	84.6448
0.00812831	84.8894
0.00817523	85.1348
0.00822243	85.3808
0.0082699	85.6275
0.00831764	85.875
0.00836566	86.1231
0.00841395	86.372
0.00846253	86.6216
0.00851138	86.8719
0.00856052	87.123
0.00860994	87.3747
0.00865964	87.6272
0.00870964	87.8805
0.00875992	88.1344
0.00881049	88.3891
0.00886135	88.6445
0.00891251	88.9006
0.00896396	89.1575
0.00901571	89.4152
0.00906776	89.6735
0.00912011	90.9425
0.00917276	91.2044
0.00922571	91.4671
0.00927897	91.7305
0.00933254	91.9947
0.00938642	92.2596
0.00944061	92.5253
0.00949511	92.7918
0.00954993	93.059
0.00960506	93.327
0.00966051	93.5958
0.00971628	93.8654
0.00977237	94.1357
0.00982879	94.4068
0.00988553	94.6787
0.0099426	94.9514
0.01	95.2248
0.0100577	95.499
0.0101158	95.7741
0.0101742	96.0499
0.0102329	96.3265
0.010292	96.6039
0.0103514	96.8821
0.0104112	97.1611
0.0104713	97.4409
0.0105317	97.7215
0.0105925	98.003
0.0106537	98.2852
0.0107152	98.5682
0.0107771	98.8521
0.0108393	99.1368
0.0109018	99.4223
0.0109648	99.7086
0.0110281	99.9957
0.0110917	100.284
0.0111558	100.572
0.0112202	100.862
0.011285	101.153
0.0113501	101.444
0.0114156	101.736
0.0114815	102.029
0.0115478	102.323
0.0116145	102.617
0.0116815	102.913
0.011749	103.209
0.0118168	103.506
0.011885	103.805
0.0119536	104.103
0.0120226	104.403
0.0120921	104.704
0.0121619	105.005
0.0122321	105.308
0.0123027	105.611
0.0123737	105.915
0.0124451	106.22
0.012517	106.526
0.0125893	106.833
0.0126619	107.14
0.012735	107.449
0.0128086	107.758
0.0128825	108.069
0.0129569	108.38
0.0130317	108.692
0.0131069	109.005
0.0131826	109.319
0.0132587	109.634
0.0133352	109.949
0.0134122	110.266
0.0134896	110.583
0.0135675	110.902
0.0136458	111.221
0.0137246	111.541
0.0138038	111.863
0.0138835	112.185
0.0139637	112.508
0.0140443	112.832
0.0141254	113.157
0.0142069	113.482
0.0142889	113.809
0.0143714	114.137
0.0144544	114.465
0.0145378	114.795
0.0146218	115.126
0.0147062	115.457
0.0147911	115.79
0.0148765	116.123
0.0149624	116.457
0.0150487	116.793
0.0151356	117.129
0.015223	117.466
0.0153109	117.804
0.0153993	118.144
0.0154882	118.484
0.0155776	118.825
0.0156675	119.167
0.015758	119.51
0.0158489	119.854
0.0159404	120.199
0.0160325	120.545
0.016125	120.892
0.0162181	121.241
0.0163117	121.59
0.0164059	121.94
0.0165006	122.291
0.0165959	122.643
0.0166917	122.996
0.016788	123.35
0.016885	123.705
0.0169824	124.061
0.0170805	124.419
0.0171791	124.777
0.0172783	125.136
0.017378	125.496
0.0174783	125.858
0.0175792	126.22
0.0176807	126.583
0.0177828	126.948
0.0178855	127.313
0.0179887	127.68
0.0180926	128.048
0.018197	128.416
0.0183021	128.786
0.0184077	129.157
0.018514	129.529
0.0186209	129.901
0.0187284	130.275
0.0188365	130.65
0.0189452	131.027
0.0190546	131.404
0.0191646	131.782
0.0192752	132.162
0.0193865	132.542
0.0194984	132.924
0.019611	133.306
0.0197242	133.69
0.0198381	134.075
0.0199526	134.461
0.0200678	134.848
0.0201837	135.236
0.0203002	135.626
0.0204174	136.016
0.0205353	136.408
0.0206538	136.8
0.020773	137.194
0.020893	137.589
0.0210136	137.985
0.0211349	138.382
0.0212569	138.781
0.0213796	139.18
0.021503	139.581
0.0216272	139.983
0.021752	140.386
0.0218776	140.79
0.0220039	141.195
0.0221309	141.602
0.0222587	142.009
0.0223872	142.418
0.0225165	142.828
0.0226464	143.239
0.0227772	143.651
0.0229087	144.065
0.0230409	144.48
0.0231739	144.896
0.0233077	145.313
0.0234423	145.731
0.0235776	146.15
0.0237137	146.571
0.0238506	146.993
0.0239883	147.416
0.0241268	147.841
0.0242661	148.266
0.0244062	148.693
0.0245471	149.121
0.0246888	149.55
0.0248313	149.981
0.0249747	150.412
0.0251189	150.845
0.0252639	151.279
0.0254097	151.715
0.0255564	152.152
0.025704	152.59
0.0258523	153.029
0.0260016	153.469
0.0261517	153.911
0.0263027	154.354
0.0264545	154.798
0.0266073	155.244
0.0267609	155.691
0.0269153	156.139
0.0270707	156.588
0.027227	157.039
0.0273842	157.491
0.0275423	157.944
0.0277013	158.399
0.0278612	158.855
0.0280221	159.312
0.0281838	159.771
0.0283465	160.23
0.0285102	160.692
0.0286748	161.154
0.0288403	161.618
0.0290068	162.083
0.0291743	162.55
0.0293427	163.017
0.0295121	163.487
0.0296825	163.957
0.0298538	164.429
0.0300262	164.902
0.0301995	165.377
0.0303739	165.853
0.0305492	166.33
0.0307256	166.809
0.030903	167.289
0.0310814	167.77
0.0312608	168.253
0.0314413	168.737
0.0316228	169.223
0.0318053	169.71
0.031989	170.199
0.0321736	170.688
0.0323594	171.18
0.0325462	171.672
0.0327341	172.166
0.032923	172.662
0.0331131	173.159
0.0333043	173.657
0.0334965	174.157
0.0336899	174.658
0.0338844	175.161
0.03408	175.665
0.0342768	176.17
0.0344747	176.677
0.0346737	177.186
0.0348739	177.696
0.0350752	178.207
0.0352777	178.72
0.0354813	179.234
0.0356862	179.75
0.0358922	180.267
0.0360994	180.786
0.0363078	181.306
0.0365174	181.828
0.0367282	182.351
0.0369403	182.876
0.0371535	183.402
0.037368	183.93
0.0375837	184.459
0.0378007	184.99
0.0380189	185.522
0.0382384	186.056
0.0384592	186.591
0.0386812	187.128
0.0389045	187.667
0.0391291	188.207
0.039355	188.748
0.0395822	189.291
0.0398107	189.836
0.0400405	190.382
0.0402717	190.93
0.0405042	191.48
0.040738	192.031
0.0409732	192.583
0.0412098	193.137
0.0414477	193.693
0.0416869	194.25
0.0419276	194.809
0.0421697	195.37
0.0424131	195.932
0.042658	196.496
0.0429042	197.061
0.0431519	197.628
0.043401	198.197
0.0436516	198.767
0.0439036	199.339
0.044157	199.912
0.044412	200.487
0.0446684	201.064
0.0449262	201.643
0.0451856	202.223
0.0454465	202.805
0.0457088	203.388
0.0459727	203.973
0.0462381	204.56
0.046505	205.149
0.0467735	205.739
0.0470435	206.331
0.0473151	206.924
0.0475883	207.52
0.047863	208.117
0.0481393	208.716
0.0484172	209.316
0.0486968	209.918
0.0489779	210.522
0.0492606	211.128
0.049545	211.735
0.049831	212.344
0.0501187	212.955
0.0504081	213.568
0.0506991	214.182
0.0509918	214.798
0.0512861	215.416
0.0515822	216.036
0.05188	216.657
0.0521795	217.281
0.0524807	217.906
0.0527837	218.533
0.0530884	219.161
0.0533949	219.792
0.0537032	220.424
0.0540132	221.058
0.054325	221.694
0.0546387	222.332
0.0549541	222.971
0.0552713	223.613
0.0555904	224.256
0.0559114	224.901
0.0562341	225.548
0.0565588	226.197
0.0568853	226.847
0.0572137	227.5
0.057544	228.154
0.0578762	228.811
0.0582103	229.469
0.0585464	230.129
0.0588844	230.791
0.0592243	231.455
0.0595662	232.12
0.0599101	232.788
0.060256	233.458
0.0606038	234.129
0.0609537	234.802
0.0613056	235.478
0.0616595	236.155
0.0620155	236.834
0.0623735	237.516
0.0627336	238.199
0.0630957	238.884
0.06346	239.571
0.0638263	240.26
0.0641948	240.951
0.0645654	241.644
0.0649382	242.339
0.0653131	243.036
0.0656901	243.735
0.0660693	244.436
0.0664508	245.139
0.0668344	245.844
0.0672202	246.551
0.0676083	247.26
0.0679986	247.971
0.0683912	248.684
0.068786	249.399
0.0691831	250.117
0.0695825	250.836
0.0699842	251.557
0.0703882	252.281
0.0707946	253.006
0.0712033	253.734
0.0716143	254.464
0.0720278	255.195
0.0724436	255.929
0.0728618	256.665
0.0732825	257.403
0.0737055	258.144
0.074131	258.886
0.074559	259.63
0.0749894	260.377
0.0754223	261.126
0.0758578	261.877
0.0762957	262.63
0.0767361	263.385
0.0771792	264.142
0.0776247	264.902
0.0780728	265.663
0.0785236	266.427
0.0789769	267.193
0.0794328	267.962
0.0798914	268.732
0.0803526	269.505
0.0808165	270.28
0.0812831	271.057
0.0817523	271.836
0.0822243	272.618
0.082699	273.402
0.0831764	274.188
0.0836566	274.976
0.0841395	275.767
0.0846253	276.56
0.0851138	277.355
0.0856052	278.152
0.0860994	278.952
0.0865964	279.754
0.0870964	280.559
0.0875992	281.365
0.0881049	282.174
0.0886135	282.985
0.0891251	283.799
0.0896396	284.615
0.0901571	285.433
0.0906776	286.254
0.0912011	287.077
0.0917276	287.902
0.0922571	288.73
0.0927897	289.56
0.0933254	290.392
0.0938642	291.227
0.0944061	292.064
0.0949511	292.904
0.0954993	293.746
0.0960506	294.59
0.0966051	295.437
0.0971628	296.287
0.0977237	297.138
0.0982879	297.992
0.0988553	298.849
0.099426	299.708
0.1	300.57
0.100577	301.434
0.101158	302.3
0.101742	303.169
0.102329	304.041
0.10292	304.915
0.103514	305.791
0.104112	306.67
0.104713	307.552
0.105317	308.436
0.105925	309.322
0.106537	310.211
0.107152	311.103
0.107771	311.997
0.108393	312.894
0.109018	313.793
0.109648	314.695
0.110281	315.6
0.110917	316.507
0.111558	317.416
0.112202	318.329
0.11285	319.244
0.113501	320.161
0.114156	321.081
0.114815	322.004
0.115478	322.93
0.116145	323.858
0.116815	324.788
0.11749	325.722
0.118168	326.658
0.11885	327.597
0.119536	328.538
0.120226	329.482
0.120921	330.429
0.121619	331.379
0.122321	332.331
0.123027	333.286
0.123737	334.244
0.124451	335.204
0.12517	336.168
0.125893	337.134
0.126619	338.103
0.12735	339.074
0.128086	340.048
0.128825	341.026
0.129569	342.006
0.130317	342.988
0.131069	343.974
0.131826	344.962
0.132587	345.954
0.133352	346.948
0.134122	347.945
0.134896	348.944
0.135675	349.947
0.136458	350.952
0.137246	351.961
0.138038	352.972
0.138835	353.986
0.139637	355.003
0.140443	356.023
0.141254	357.046
0.142069	358.072
0.142889	359.101
0.143714	360.133
0.144544	361.167
0.145378	362.205
0.146218	363.245
0.147062	364.289
0.147911	365.336
0.148765	366.385
0.149624	367.438
0.150487	368.493
0.151356	369.552
0.15223	370.614
0.153109	371.678
0.153993	372.746
0.154882	373.817
0.155776	374.891
0.156675	375.968
0.15758	377.048
0.158489	378.131
0.159404	379.217
0.160325	380.306
0.16125	381.399
0.162181	382.494
0.163117	383.593
0.164059	384.695
0.165006	385.8
0.165959	386.908
0.166917	388.019
0.16788	389.134
0.16885	390.252
0.169824	391.373
0.170805	392.497
0.171791	393.624
0.172783	394.755
0.17378	395.888
0.174783	397.025
0.175792	398.166
0.176807	399.309
0.177828	400.456
0.178855	401.606
0.179887	402.76
0.180926	403.916
0.18197	405.076
0.183021	406.24
0.184077	407.406
0.18514	408.576
0.186209	409.75
0.187284	410.926
0.188365	412.106
0.189452	413.29
0.190546	414.477
0.191646	415.667
0.192752	416.861
0.193865	418.058
0.194984	419.258
0.19611	420.462
0.197242	421.669
0.198381	422.88
0.199526	424.094
0.200678	425.312
0.201837	426.533
0.203002	427.758
0.204174	428.986
0.205353	430.218
0.206538	431.453
0.20773	432.692
0.20893	433.935
0.210136	435.18
0.211349	436.43
0.212569	437.683
0.213796	438.94
0.21503	440.2
0.216272	441.464
0.21752	442.731
0.218776	444.002
0.220039	445.277
0.221309	446.555
0.222587	447.837
0.223872	449.123
0.225165	450.412
0.226464	451.705
0.227772	453.002
0.229087	454.302
0.230409	455.606
0.231739	456.914
0.233077	458.226
0.234423	459.541
0.235776	460.86
0.237137	462.183
0.238506	463.51
0.239883	464.84
0.241268	466.174
0.242661	467.513
0.244062	468.854
0.245471	470.2
0.246888	471.55
0.248313	472.903
0.249747	474.26
0.251189	475.622
0.252639	476.987
0.254097	478.356
0.255564	479.729
0.25704	481.105
0.258523	482.486
0.260016	483.871
0.261517	485.26
0.263027	486.652
0.264545	488.049
0.266073	489.449
0.267609	490.854
0.269153	492.263
0.270707	493.675
0.27227	495.092
0.273842	496.513
0.275423	497.937
0.277013	499.366
0.278612	500.799
0.280221	502.236
0.281838	503.677
0.283465	505.122
0.285102	506.572
0.286748	508.025
0.288403	509.483
0.290068	510.945
0.291743	512.411
0.293427	513.881
0.295121	515.355
0.296825	516.834
0.298538	518.317
0.300262	519.804
0.301995	521.295
0.303739	522.791
0.305492	524.291
0.307256	525.795
0.30903	527.303
0.310814	528.816
0.312608	530.333
0.314413	531.854
0.316228	533.38
0.318053	534.91
0.31989	536.444
0.321736	537.983
0.323594	539.526
0.325462	541.074
0.327341	542.626
0.32923	544.182
0.331131	545.743
0.333043	547.309
0.334965	548.879
0.336899	550.453
0.338844	552.032
0.3408	553.615
0.342768	555.203
0.344747	556.795
0.346737	558.392
0.348739	559.994
0.350752	561.6
0.352777	563.21
0.354813	564.825
0.356862	566.445
0.358922	568.07
0.360994	569.699
0.363078	571.332
0.365174	572.971
0.367282	574.614
0.369403	576.262
0.371535	577.914
0.37368	579.571
0.375837	581.233
0.378007	582.9
0.380189	584.571
0.382384	586.247
0.384592	587.928
0.386812	589.614
0.389045	591.305
0.391291	593
0.39355	594.7
0.395822	596.405
0.398107	598.115
0.400405	599.83
0.402717	601.55
0.405042	603.274
0.40738	605.004
0.409732	606.738
0.412098	608.477
0.414477	610.222
0.416869	611.971
0.419276	613.725
0.421697	615.485
0.424131	617.249
0.42658	619.018
0.429042	620.793
0.431519	622.572
0.43401	624.357
0.436516	626.146
0.439036	627.941
0.44157	629.741
0.44412	631.546
0.446684	633.356
0.449262	635.171
0.451856	636.991
0.454465	638.817
0.457088	640.648
0.459727	642.484
0.462381	644.325
0.46505	646.172
0.467735	648.024
0.470435	649.881
0.473151	651.743
0.475883	653.611
0.47863	655.484
0.481393	657.362
0.484172	659.245
0.486968	661.135
0.489779	663.029
0.492606	664.929
0.49545	666.834
0.49831	668.745
0.501187	670.661
0.504081	672.582
0.506991	674.509
0.509918	676.442
0.512861	678.38
0.515822	680.323
0.5188	682.272
0.521795	684.227
0.524807	686.187
0.527837	688.153
0.530884	690.124
0.533949	692.101
0.537032	694.084
0.540132	696.072
0.54325	698.066
0.546387	700.066
0.549541	702.071
0.552713	704.082
0.555904	706.099
0.559114	708.121
0.562341	710.149
0.565588	712.183
0.568853	714.223
0.572137	716.269
0.57544	718.32
0.578762	720.377
0.582103	722.44
0.585464	724.509
0.588844	726.584
0.592243	728.665
0.595662	730.751
0.599101	732.844
0.60256	734.943
0.606038	737.047
0.609537	739.158
0.613056	741.274
