E [MeV]	dEdx [keV/microm]
0.001	22.7993
0.00100577	22.8654
0.00101158	22.9317
0.00101742	22.9981
0.00102329	23.0648
0.0010292	23.1317
0.00103514	23.1987
0.00104112	23.266
0.00104713	23.3334
0.00105317	23.4011
0.00105925	23.4689
0.00106537	23.5369
0.00107152	23.6051
0.00107771	23.6735
0.00108393	23.7422
0.00109018	23.811
0.00109648	23.88
0.00110281	23.9492
0.00110917	24.0186
0.00111558	24.0882
0.00112202	24.158
0.0011285	24.228
0.00113501	24.2982
0.00114156	24.3687
0.00114815	24.4393
0.00115478	24.5101
0.00116145	24.5811
0.00116815	24.6524
0.0011749	24.7238
0.00118168	24.7954
0.0011885	24.8673
0.00119536	24.9393
0.00120226	25.0116
0.00120921	25.0841
0.00121619	25.1567
0.00122321	25.2297
0.00123027	25.3028
0.00123737	25.3761
0.00124451	25.4496
0.0012517	25.5233
0.00125893	25.5972
0.00126619	25.6714
0.0012735	25.7458
0.00128086	25.8204
0.00128825	25.8952
0.00129569	25.9702
0.00130317	26.0454
0.00131069	26.1209
0.00131826	26.1966
0.00132587	26.2724
0.00133352	26.3486
0.00134122	26.4249
0.00134896	26.5014
0.00135675	26.5782
0.00136458	26.6552
0.00137246	26.7324
0.00138038	26.8098
0.00138835	26.8875
0.00139637	26.9654
0.00140443	27.0434
0.00141254	27.1218
0.00142069	27.2003
0.00142889	27.2791
0.00143714	27.3581
0.00144544	27.4374
0.00145378	27.5168
0.00146218	27.5965
0.00147062	27.6765
0.00147911	27.7566
0.00148765	27.837
0.00149624	27.9176
0.00150487	27.9985
0.00151356	28.0795
0.0015223	28.1608
0.00153109	28.2424
0.00153993	28.3242
0.00154882	28.4062
0.00155776	28.4885
0.00156675	28.5709
0.0015758	28.6537
0.00158489	28.7367
0.00159404	28.8199
0.00160325	28.9033
0.0016125	28.987
0.00162181	29.0709
0.00163117	29.1551
0.00164059	29.2395
0.00165006	29.3242
0.00165959	29.4091
0.00166917	29.4942
0.0016788	29.5796
0.0016885	29.6653
0.00169824	29.7511
0.00170805	29.8373
0.00171791	29.9237
0.00172783	30.0103
0.0017378	30.0972
0.00174783	30.1843
0.00175792	30.2717
0.00176807	30.3593
0.00177828	30.4472
0.00178855	30.5353
0.00179887	30.6237
0.00180926	30.7124
0.0018197	30.8013
0.00183021	30.8904
0.00184077	30.9799
0.0018514	31.0695
0.00186209	31.1595
0.00187284	31.2497
0.00188365	31.3401
0.00189452	31.4308
0.00190546	31.5218
0.00191646	31.613
0.00192752	31.7045
0.00193865	31.7963
0.00194984	31.8883
0.0019611	31.9806
0.00197242	32.0732
0.00198381	32.166
0.00199526	32.2591
0.00200678	32.3525
0.00201837	32.4461
0.00203002	32.54
0.00204174	32.6342
0.00205353	32.7286
0.00206538	32.8233
0.0020773	32.9183
0.0020893	33.0136
0.00210136	33.1091
0.00211349	33.2049
0.00212569	33.301
0.00213796	33.3974
0.0021503	33.494
0.00216272	33.5909
0.0021752	33.6881
0.00218776	33.7856
0.00220039	33.8834
0.00221309	33.9814
0.00222587	34.0797
0.00223872	34.1784
0.00225165	34.2772
0.00226464	34.3764
0.00227772	34.4759
0.00229087	34.5757
0.00230409	34.6757
0.00231739	34.776
0.00233077	34.8766
0.00234423	34.9776
0.00235776	35.0787
0.00237137	35.1802
0.00238506	35.282
0.00239883	35.3841
0.00241268	35.4865
0.00242661	35.5891
0.00244062	35.6921
0.00245471	35.7953
0.00246888	35.8989
0.00248313	36.0027
0.00249747	36.1069
0.00251189	36.2113
0.00252639	36.3161
0.00254097	36.4212
0.00255564	36.5265
0.0025704	36.6322
0.00258523	36.7381
0.00260016	36.8444
0.00261517	36.951
0.00263027	37.0579
0.00264545	37.1651
0.00266073	37.2726
0.00267609	37.3804
0.00269153	37.4885
0.00270707	37.597
0.0027227	37.7057
0.00273842	37.8148
0.00275423	37.9241
0.00277013	38.0338
0.00278612	38.1438
0.00280221	38.2542
0.00281838	38.3648
0.00283465	38.4758
0.00285102	38.587
0.00286748	38.6986
0.00288403	38.8106
0.00290068	38.9228
0.00291743	39.0354
0.00293427	39.1483
0.00295121	39.2615
0.00296825	39.375
0.00298538	39.4889
0.00300262	39.6031
0.00301995	39.7177
0.00303739	39.8325
0.00305492	39.9477
0.00307256	40.0632
0.0030903	40.1791
0.00310814	40.2953
0.00312608	40.4118
0.00314413	40.5287
0.00316228	40.6459
0.00318053	40.7634
0.0031989	40.8813
0.00321736	40.9995
0.00323594	41.118
0.00325462	41.2369
0.00327341	41.3562
0.0032923	41.4757
0.00331131	41.5957
0.00333043	41.716
0.00334965	41.8366
0.00336899	41.9576
0.00338844	42.0789
0.003408	42.2005
0.00342768	42.3225
0.00344747	42.4449
0.00346737	42.5676
0.00348739	42.6907
0.00350752	42.8142
0.00352777	42.9379
0.00354813	43.0621
0.00356862	43.1866
0.00358922	43.3114
0.00360994	43.4367
0.00363078	43.5622
0.00365174	43.6882
0.00367282	43.8145
0.00369403	43.9411
0.00371535	44.0682
0.0037368	44.1956
0.00375837	44.3233
0.00378007	44.4515
0.00380189	44.58
0.00382384	44.7089
0.00384592	44.8381
0.00386812	44.9677
0.00389045	45.0977
0.00391291	45.2281
0.0039355	45.3588
0.00395822	45.4899
0.00398107	45.6214
0.00400405	45.7533
0.00402717	45.8856
0.00405042	46.0182
0.0040738	46.1512
0.00409732	46.2846
0.00412098	46.4184
0.00414477	46.5526
0.00416869	46.6872
0.00419276	46.8221
0.00421697	46.9574
0.00424131	47.0932
0.0042658	47.2293
0.00429042	47.3658
0.00431519	47.5027
0.0043401	47.64
0.00436516	47.7777
0.00439036	47.9158
0.0044157	48.0543
0.0044412	48.1932
0.00446684	48.3325
0.00449262	48.4722
0.00451856	48.6123
0.00454465	48.7528
0.00457088	48.8937
0.00459727	49.035
0.00462381	49.1767
0.0046505	49.3188
0.00467735	49.4613
0.00470435	49.6043
0.00473151	49.7584
0.00475883	49.9022
0.0047863	50.0463
0.00481393	50.1909
0.00484172	50.336
0.00486968	50.4814
0.00489779	50.6272
0.00492606	50.7735
0.0049545	50.9202
0.0049831	51.0673
0.00501187	51.2149
0.00504081	51.3629
0.00506991	51.5112
0.00509918	51.6601
0.00512861	51.8209
0.00515822	51.8214
0.005188	51.9336
0.00521795	52.0733
0.00524807	52.2355
0.00527837	52.3982
0.00530884	52.5493
0.00533949	52.7009
0.00537032	52.7513
0.00540132	52.9034
0.0054325	53.056
0.00546387	53.1773
0.00549541	53.3306
0.00552713	53.4845
0.00555904	53.6387
0.00559114	53.7934
0.00562341	53.9486
0.00565588	54.1041
0.00568853	54.2602
0.00572137	54.4167
0.0057544	54.5736
0.00578762	54.731
0.00582103	54.8889
0.00585464	55.0472
0.00588844	55.2059
0.00592243	55.3652
0.00595662	55.5248
0.00599101	55.685
0.0060256	55.8456
0.00606038	56.0067
0.00609537	56.1682
0.00613056	56.3302
0.00616595	56.4927
0.00620155	56.6556
0.00623735	56.819
0.00627336	56.9829
0.00630957	57.1472
0.006346	57.312
0.00638263	57.4774
0.00641948	57.6431
0.00645654	57.8094
0.00649382	57.9761
0.00653131	58.1433
0.00656901	58.311
0.00660693	58.4792
0.00664508	58.6479
0.00668344	58.8171
0.00672202	58.9867
0.00676083	59.1568
0.00679986	59.3274
0.00683912	59.4986
0.0068786	59.6702
0.00691831	59.8423
0.00695825	60.0149
0.00699842	60.188
0.00703882	60.3616
0.00707946	60.5357
0.00712033	60.7103
0.00716143	60.8854
0.00720278	61.061
0.00724436	61.2371
0.00728618	61.4138
0.00732825	61.5909
0.00737055	61.7685
0.0074131	61.9467
0.0074559	62.1254
0.00749894	62.3046
0.00754223	62.4843
0.00758578	62.6645
0.00762957	62.8452
0.00767361	63.0265
0.00771792	63.2083
0.00776247	63.3906
0.00780728	63.5735
0.00785236	63.7569
0.00789769	63.9408
0.00794328	64.1252
0.00798914	64.3101
0.00803526	64.4957
0.00808165	64.6817
0.00812831	64.8683
0.00817523	65.0554
0.00822243	65.243
0.0082699	65.4312
0.00831764	65.62
0.00836566	65.8092
0.00841395	65.9991
0.00846253	66.1894
0.00851138	66.3803
0.00856052	66.5718
0.00860994	66.7638
0.00865964	66.9564
0.00870964	67.1496
0.00875992	67.3433
0.00881049	67.5375
0.00886135	67.7323
0.00891251	67.9277
0.00896396	68.1236
0.00901571	68.3202
0.00906776	68.5172
0.00912011	68.7149
0.00917276	68.9131
0.00922571	69.1119
0.00927897	69.3112
0.00933254	69.5112
0.00938642	69.7117
0.00944061	69.9128
0.00949511	70.1144
0.00954993	70.3167
0.00960506	70.5195
0.00966051	70.7229
0.00971628	70.927
0.00977237	71.1315
0.00982879	71.3367
0.00988553	71.5425
0.0099426	71.7489
0.01	71.9559
0.0100577	72.1634
0.0101158	72.3716
0.0101742	72.5804
0.0102329	72.7898
0.010292	72.9997
0.0103514	73.2103
0.0104112	73.4215
0.0104713	73.6333
0.0105317	73.8457
0.0105925	74.0587
0.0106537	74.2724
0.0107152	74.4866
0.0107771	74.7015
0.0108393	74.917
0.0109018	75.1331
0.0109648	75.3499
0.0110281	75.5672
0.0110917	75.7852
0.0111558	76.0039
0.0112202	76.2231
0.011285	76.443
0.0113501	76.6635
0.0114156	76.8847
0.0114815	77.1065
0.0115478	77.3289
0.0116145	77.552
0.0116815	77.7757
0.011749	78.0001
0.0118168	78.2251
0.011885	78.4508
0.0119536	78.6771
0.0120226	78.9041
0.0120921	79.1317
0.0121619	79.36
0.0122321	79.589
0.0123027	79.8186
0.0123737	80.0488
0.0124451	80.2798
0.012517	80.5114
0.0125893	80.7437
0.0126619	80.9766
0.012735	81.2102
0.0128086	81.4445
0.0128825	81.6795
0.0129569	81.9151
0.0130317	82.1514
0.0131069	82.3884
0.0131826	82.6261
0.0132587	82.8645
0.0133352	83.1036
0.0134122	83.3433
0.0134896	83.5838
0.0135675	83.8249
0.0136458	84.0668
0.0137246	84.3093
0.0138038	84.5525
0.0138835	84.7965
0.0139637	85.0411
0.0140443	85.2865
0.0141254	85.5325
0.0142069	85.7793
0.0142889	86.0268
0.0143714	86.275
0.0144544	86.5239
0.0145378	86.7735
0.0146218	87.0239
0.0147062	87.275
0.0147911	87.5268
0.0148765	87.7793
0.0149624	88.0326
0.0150487	88.2865
0.0151356	88.5413
0.015223	88.7967
0.0153109	89.0529
0.0153993	89.3099
0.0154882	89.5675
0.0155776	89.826
0.0156675	90.0851
0.015758	90.3451
0.0158489	90.6057
0.0159404	90.8671
0.0160325	91.1293
0.016125	91.3923
0.0162181	91.6559
0.0163117	91.9204
0.0164059	92.1856
0.0165006	92.4516
0.0165959	92.7183
0.0166917	92.9859
0.016788	93.2542
0.016885	93.5233
0.0169824	93.7931
0.0170805	94.0637
0.0171791	94.3351
0.0172783	94.6073
0.017378	94.8803
0.0174783	95.1541
0.0175792	95.4286
0.0176807	95.704
0.0177828	95.9801
0.0178855	96.2571
0.0179887	96.5348
0.0180926	96.8134
0.018197	97.0927
0.0183021	97.3729
0.0184077	97.6539
0.018514	97.9356
0.0186209	98.2183
0.0187284	98.5016
0.0188365	98.7858
0.0189452	99.0709
0.0190546	99.3568
0.0191646	99.6435
0.0192752	99.931
0.0193865	100.219
0.0194984	100.509
0.019611	100.798
0.0197242	101.089
0.0198381	101.381
0.0199526	101.674
0.0200678	101.967
0.0201837	102.261
0.0203002	102.557
0.0204174	102.852
0.0205353	103.149
0.0206538	103.447
0.020773	103.745
0.020893	104.045
0.0210136	104.345
0.0211349	104.646
0.0212569	104.948
0.0213796	105.251
0.021503	105.555
0.0216272	105.859
0.021752	106.165
0.0218776	106.471
0.0220039	106.778
0.0221309	107.086
0.0222587	107.396
0.0223872	107.705
0.0225165	108.016
0.0226464	108.328
0.0227772	108.641
0.0229087	108.954
0.0230409	109.269
0.0231739	109.584
0.0233077	109.9
0.0234423	110.217
0.0235776	110.535
0.0237137	110.854
0.0238506	111.174
0.0239883	111.495
0.0241268	111.817
0.0242661	112.139
0.0244062	112.463
0.0245471	112.788
0.0246888	113.113
0.0248313	113.44
0.0249747	113.767
0.0251189	114.095
0.0252639	114.425
0.0254097	114.755
0.0255564	115.086
0.025704	115.418
0.0258523	115.751
0.0260016	116.085
0.0261517	116.42
0.0263027	116.756
0.0264545	117.093
0.0266073	117.431
0.0267609	117.77
0.0269153	118.11
0.0270707	118.451
0.027227	118.793
0.0273842	119.136
0.0275423	119.48
0.0277013	119.824
0.0278612	120.17
0.0280221	120.517
0.0281838	120.865
0.0283465	121.214
0.0285102	121.564
0.0286748	121.915
0.0288403	122.266
0.0290068	122.619
0.0291743	122.973
0.0293427	123.328
0.0295121	123.684
0.0296825	124.041
0.0298538	124.399
0.0300262	124.758
0.0301995	125.118
0.0303739	125.479
0.0305492	125.841
0.0307256	126.205
0.030903	126.569
0.0310814	126.934
0.0312608	127.301
0.0314413	127.668
0.0316228	128.037
0.0318053	128.406
0.031989	128.777
0.0321736	129.149
0.0323594	129.521
0.0325462	129.895
0.0327341	130.27
0.032923	130.646
0.0331131	131.023
0.0333043	131.402
0.0334965	131.781
0.0336899	132.161
0.0338844	132.543
0.03408	132.925
0.0342768	133.309
0.0344747	133.694
0.0346737	134.08
0.0348739	134.467
0.0350752	134.855
0.0352777	135.244
0.0354813	135.635
0.0356862	136.026
0.0358922	136.419
0.0360994	136.813
0.0363078	137.208
0.0365174	137.604
0.0367282	138.001
0.0369403	138.399
0.0371535	138.799
0.037368	139.2
0.0375837	139.601
0.0378007	140.004
0.0380189	140.409
0.0382384	140.814
0.0384592	141.221
0.0386812	141.628
0.0389045	142.037
0.0391291	142.447
0.039355	142.858
0.0395822	143.271
0.0398107	143.684
0.0400405	144.099
0.0402717	144.515
0.0405042	144.932
0.040738	145.351
0.0409732	145.77
0.0412098	146.191
0.0414477	146.613
0.0416869	147.037
0.0419276	147.461
0.0421697	147.887
0.0424131	148.314
0.042658	148.742
0.0429042	149.171
0.0431519	149.602
0.043401	150.034
0.0436516	150.467
0.0439036	150.901
0.044157	151.337
0.044412	151.774
0.0446684	152.212
0.0449262	152.652
0.0451856	153.093
0.0454465	153.535
0.0457088	153.978
0.0459727	154.423
0.0462381	154.868
0.046505	155.315
0.0467735	155.764
0.0470435	156.214
0.0473151	156.665
0.0475883	157.117
0.047863	157.571
0.0481393	158.026
0.0484172	158.482
0.0486968	158.94
0.0489779	159.398
0.0492606	159.859
0.049545	160.32
0.049831	160.783
0.0501187	161.247
0.0504081	161.713
0.0506991	162.18
0.0509918	162.648
0.0512861	163.118
0.0515822	163.589
0.05188	164.061
0.0521795	164.535
0.0524807	165.01
0.0527837	165.487
0.0530884	165.965
0.0533949	166.444
0.0537032	166.925
0.0540132	167.407
0.054325	167.89
0.0546387	168.375
0.0549541	168.861
0.0552713	169.349
0.0555904	169.838
0.0559114	170.328
0.0562341	170.82
0.0565588	171.313
0.0568853	171.808
0.0572137	172.304
0.057544	172.802
0.0578762	173.301
0.0582103	173.801
0.0585464	174.303
0.0588844	174.807
0.0592243	175.311
0.0595662	175.818
0.0599101	176.326
0.060256	176.835
0.0606038	177.345
0.0609537	177.858
0.0613056	178.371
0.0616595	178.887
0.0620155	179.403
0.0623735	179.921
0.0627336	180.441
0.0630957	180.962
0.06346	181.484
0.0638263	182.009
0.0641948	182.534
0.0645654	183.062
0.0649382	183.59
0.0653131	184.121
0.0656901	184.652
0.0660693	185.186
0.0664508	185.72
0.0668344	186.257
0.0672202	186.795
0.0676083	187.334
0.0679986	187.875
0.0683912	188.418
0.068786	188.962
0.0691831	189.508
0.0695825	190.055
0.0699842	190.604
0.0703882	191.155
0.0707946	191.707
0.0712033	192.261
0.0716143	192.816
0.0720278	193.373
0.0724436	193.932
0.0728618	194.492
0.0732825	195.054
0.0737055	195.617
0.074131	196.182
0.074559	196.749
0.0749894	197.317
0.0754223	197.887
0.0758578	198.459
0.0762957	199.032
0.0767361	199.607
0.0771792	200.184
0.0776247	200.762
0.0780728	201.342
0.0785236	201.923
0.0789769	202.507
0.0794328	203.092
0.0798914	203.679
0.0803526	204.267
0.0808165	204.857
0.0812831	205.449
0.0817523	206.042
0.0822243	206.637
0.082699	207.234
0.0831764	207.833
0.0836566	208.434
0.0841395	209.036
0.0846253	209.64
0.0851138	210.245
0.0856052	210.853
0.0860994	211.462
0.0865964	212.073
0.0870964	212.685
0.0875992	213.3
0.0881049	213.916
0.0886135	214.534
0.0891251	215.154
0.0896396	215.776
0.0901571	216.399
0.0906776	217.024
0.0912011	217.651
0.0917276	218.28
0.0922571	218.911
0.0927897	219.543
0.0933254	220.178
0.0938642	220.814
0.0944061	221.452
0.0949511	222.092
0.0954993	222.733
0.0960506	223.377
0.0966051	224.022
0.0971628	224.67
0.0977237	225.319
0.0982879	225.97
0.0988553	226.623
0.099426	227.278
0.1	227.935
0.100577	228.593
0.101158	229.254
0.101742	229.916
0.102329	230.581
0.10292	231.247
0.103514	231.915
0.104112	232.585
0.104713	233.257
0.105317	233.932
0.105925	234.607
0.106537	235.285
0.107152	235.965
0.107771	236.647
0.108393	237.331
0.109018	238.017
0.109648	238.705
0.110281	239.395
0.110917	240.087
0.111558	240.781
0.112202	241.476
0.11285	242.174
0.113501	242.874
0.114156	243.576
0.114815	244.28
0.115478	244.986
0.116145	245.694
0.116815	246.404
0.11749	247.116
0.118168	247.83
0.11885	248.547
0.119536	249.265
0.120226	249.985
0.120921	250.708
0.121619	251.433
0.122321	252.159
0.123027	252.888
0.123737	253.619
0.124451	254.352
0.12517	255.087
0.125893	255.825
0.126619	256.564
0.12735	257.306
0.128086	258.049
0.128825	258.795
0.129569	259.543
0.130317	260.294
0.131069	261.046
0.131826	261.801
0.132587	262.558
0.133352	263.316
0.134122	264.078
0.134896	264.841
0.135675	265.606
0.136458	266.374
0.137246	267.145
0.138038	267.917
0.138835	268.691
0.139637	269.468
0.140443	270.247
0.141254	271.028
0.142069	271.812
0.142889	272.597
0.143714	273.386
0.144544	274.176
0.145378	274.969
0.146218	275.764
0.147062	276.561
0.147911	277.36
0.148765	278.162
0.149624	278.966
0.150487	279.773
0.151356	280.582
0.15223	281.393
0.153109	282.207
0.153993	283.023
0.154882	283.841
0.155776	284.662
0.156675	285.485
0.15758	286.31
0.158489	287.138
0.159404	287.968
0.160325	288.801
0.16125	289.636
0.162181	290.473
0.163117	291.313
0.164059	292.156
0.165006	293
0.165959	293.848
0.166917	294.697
0.16788	295.55
0.16885	296.404
0.169824	297.261
0.170805	298.121
0.171791	298.983
0.172783	299.848
0.17378	300.715
0.174783	301.584
0.175792	302.457
0.176807	303.331
0.177828	304.209
0.178855	305.088
0.179887	305.97
0.180926	306.855
0.18197	307.743
0.183021	308.633
0.184077	309.525
0.18514	310.42
0.186209	311.318
0.187284	312.219
0.188365	313.122
0.189452	314.027
0.190546	314.936
0.191646	315.846
0.192752	316.76
0.193865	317.676
0.194984	318.595
0.19611	319.517
0.197242	320.441
0.198381	321.368
0.199526	322.297
0.200678	323.23
0.201837	324.164
0.203002	325.102
0.204174	326.042
0.205353	326.986
0.206538	327.931
0.20773	328.88
0.20893	329.831
0.210136	330.785
0.211349	331.743
0.212569	332.702
0.213796	333.665
0.21503	334.63
0.216272	335.598
0.21752	336.569
0.218776	337.542
0.220039	338.519
0.221309	339.498
0.222587	340.48
0.223872	341.466
0.225165	342.453
0.226464	343.444
0.227772	344.438
0.229087	345.434
0.230409	346.434
0.231739	347.436
0.233077	348.441
0.234423	349.449
0.235776	350.46
0.237137	351.475
0.238506	352.492
0.239883	353.511
0.241268	354.534
0.242661	355.56
0.244062	356.589
0.245471	357.621
0.246888	358.656
0.248313	359.693
0.249747	360.734
0.251189	361.778
0.252639	362.825
0.254097	363.875
0.255564	364.928
0.25704	365.984
0.258523	367.043
0.260016	368.105
0.261517	369.171
0.263027	370.239
0.264545	371.31
0.266073	372.385
0.267609	373.463
0.269153	374.544
0.270707	375.628
0.27227	376.715
0.273842	377.805
0.275423	378.898
0.277013	379.995
0.278612	381.095
0.280221	382.198
0.281838	383.304
0.283465	384.414
0.285102	385.526
0.286748	386.642
0.288403	387.761
0.290068	388.884
0.291743	390.009
0.293427	391.138
0.295121	392.27
0.296825	393.406
0.298538	394.545
0.300262	395.687
0.301995	396.832
0.303739	397.981
0.305492	399.133
0.307256	400.288
0.30903	401.447
0.310814	402.61
0.312608	403.775
0.314413	404.944
0.316228	406.116
0.318053	407.292
0.31989	408.471
0.321736	409.654
0.323594	410.84
0.325462	412.029
0.327341	413.222
0.32923	414.419
0.331131	415.618
0.333043	416.822
0.334965	418.029
0.336899	419.239
0.338844	420.453
0.3408	421.671
0.342768	422.892
0.344747	424.116
0.346737	425.344
0.348739	426.576
0.350752	427.811
0.352777	429.05
0.354813	430.292
0.356862	431.538
0.358922	432.788
0.360994	434.041
0.363078	435.299
0.365174	436.559
0.367282	437.823
0.369403	439.091
0.371535	440.363
0.37368	441.638
0.375837	442.918
0.378007	444.2
0.380189	445.487
0.382384	446.777
0.384592	448.071
0.386812	449.369
0.389045	450.67
0.391291	451.976
0.39355	453.285
0.395822	454.598
0.398107	455.915
0.400405	457.235
0.402717	458.56
0.405042	459.888
0.40738	461.22
0.409732	462.556
0.412098	463.896
0.414477	465.24
0.416869	466.588
0.419276	467.939
0.421697	469.295
0.424131	470.655
0.42658	472.018
0.429042	473.386
0.431519	474.757
0.43401	476.133
0.436516	477.512
0.439036	478.895
0.44157	480.283
0.44412	481.675
0.446684	483.07
0.449262	484.47
0.451856	485.874
0.454465	487.281
0.457088	488.693
0.459727	490.109
0.462381	491.529
0.46505	492.954
0.467735	494.382
0.470435	495.815
0.473151	497.252
0.475883	498.693
0.47863	500.138
0.481393	501.587
0.484172	503.041
0.486968	504.499
0.489779	505.961
0.492606	507.427
0.49545	508.898
0.49831	510.373
0.501187	511.852
0.504081	513.335
0.506991	514.823
0.509918	516.315
0.512861	517.812
0.515822	519.313
0.5188	520.818
0.521795	522.328
0.524807	523.842
0.527837	525.36
0.530884	526.883
0.533949	528.41
0.537032	529.942
0.540132	531.478
0.54325	533.019
0.546387	534.564
0.549541	536.114
0.552713	537.668
0.555904	539.227
0.559114	540.79
0.562341	542.358
0.565588	543.93
0.568853	545.507
0.572137	547.089
0.57544	548.675
0.578762	550.266
0.582103	551.861
0.585464	553.462
0.588844	555.067
0.592243	556.676
0.595662	558.29
0.599101	559.909
0.60256	561.533
0.606038	563.161
0.609537	564.794
0.613056	566.432
0.616595	568.074
0.620155	569.722
0.623735	571.374
0.627336	573.031
