E [MeV]	dEdx [keV/microm]
0.001	30.9831
0.00100577	31.0731
0.00101158	31.1633
0.00101742	31.2539
0.00102329	31.3447
0.0010292	31.4357
0.00103514	31.527
0.00104112	31.6186
0.00104713	31.7105
0.00105317	31.8026
0.00105925	31.8949
0.00106537	31.9876
0.00107152	32.0805
0.00107771	32.1737
0.00108393	32.2671
0.00109018	32.3608
0.00109648	32.4548
0.00110281	32.549
0.00110917	32.6436
0.00111558	32.7383
0.00112202	32.8334
0.0011285	32.9288
0.00113501	33.0244
0.00114156	33.1203
0.00114815	33.2164
0.00115478	33.3129
0.00116145	33.4096
0.00116815	33.5066
0.0011749	33.6039
0.00118168	33.7014
0.0011885	33.7993
0.00119536	33.8974
0.00120226	33.9958
0.00120921	34.0945
0.00121619	34.1935
0.00122321	34.2928
0.00123027	34.3923
0.00123737	34.4921
0.00124451	34.5923
0.0012517	34.6927
0.00125893	34.7934
0.00126619	34.8944
0.0012735	34.9956
0.00128086	35.0972
0.00128825	35.1991
0.00129569	35.3013
0.00130317	35.4037
0.00131069	35.5065
0.00131826	35.6095
0.00132587	35.7129
0.00133352	35.8165
0.00134122	35.9204
0.00134896	36.0247
0.00135675	36.1292
0.00136458	36.2341
0.00137246	36.3392
0.00138038	36.4447
0.00138835	36.5504
0.00139637	36.6565
0.00140443	36.7628
0.00141254	36.8695
0.00142069	36.9765
0.00142889	37.0838
0.00143714	37.1914
0.00144544	37.2992
0.00145378	37.4075
0.00146218	37.516
0.00147062	37.6248
0.00147911	37.734
0.00148765	37.8435
0.00149624	37.9532
0.00150487	38.0633
0.00151356	38.1738
0.0015223	38.2845
0.00153109	38.3956
0.00153993	38.5069
0.00154882	38.6186
0.00155776	38.7306
0.00156675	38.843
0.0015758	38.9556
0.00158489	39.0686
0.00159404	39.182
0.00160325	39.2956
0.0016125	39.4096
0.00162181	39.5238
0.00163117	39.6385
0.00164059	39.7534
0.00165006	39.8687
0.00165959	39.9843
0.00166917	40.1003
0.0016788	40.2166
0.0016885	40.3332
0.00169824	40.4502
0.00170805	40.5675
0.00171791	40.6851
0.00172783	40.8031
0.0017378	40.9214
0.00174783	41.0401
0.00175792	41.1591
0.00176807	41.2784
0.00177828	41.3981
0.00178855	41.5181
0.00179887	41.6385
0.00180926	41.7592
0.0018197	41.8803
0.00183021	42.0017
0.00184077	42.1235
0.0018514	42.2456
0.00186209	42.3681
0.00187284	42.4909
0.00188365	42.6141
0.00189452	42.7376
0.00190546	42.8615
0.00191646	42.9857
0.00192752	43.1103
0.00193865	43.2353
0.00194984	43.3606
0.0019611	43.4863
0.00197242	43.6123
0.00198381	43.7388
0.00199526	43.8655
0.00200678	43.9927
0.00201837	44.1202
0.00203002	44.2481
0.00204174	44.3763
0.00205353	44.5049
0.00206538	44.6339
0.0020773	44.7633
0.0020893	44.893
0.00210136	45.0231
0.00211349	45.1536
0.00212569	45.2844
0.00213796	45.4157
0.0021503	45.5473
0.00216272	45.6793
0.0021752	45.8116
0.00218776	45.9444
0.00220039	46.0775
0.00221309	46.211
0.00222587	46.3449
0.00223872	46.4792
0.00225165	46.6139
0.00226464	46.749
0.00227772	46.8844
0.00229087	47.0202
0.00230409	47.1565
0.00231739	47.2931
0.00233077	47.4301
0.00234423	47.5675
0.00235776	47.7053
0.00237137	47.8436
0.00238506	47.9822
0.00239883	48.1212
0.00241268	48.2606
0.00242661	48.4004
0.00244062	48.5406
0.00245471	48.6812
0.00246888	48.8222
0.00248313	48.9637
0.00249747	49.1055
0.00251189	49.2478
0.00252639	49.3904
0.00254097	49.5335
0.00255564	49.677
0.0025704	49.8208
0.00258523	49.9652
0.00260016	50.1099
0.00261517	50.255
0.00263027	50.4006
0.00264545	50.5466
0.00266073	50.693
0.00267609	50.8398
0.00269153	50.987
0.00270707	51.1347
0.0027227	51.2828
0.00273842	51.4313
0.00275423	51.5802
0.00277013	51.7296
0.00278612	51.8794
0.00280221	52.0297
0.00281838	52.1804
0.00283465	52.3315
0.00285102	52.483
0.00286748	52.635
0.00288403	52.7874
0.00290068	52.9403
0.00291743	53.0936
0.00293427	53.2473
0.00295121	53.4015
0.00296825	53.5561
0.00298538	53.7112
0.00300262	53.8667
0.00301995	54.0227
0.00303739	54.1791
0.00305492	54.336
0.00307256	54.4933
0.0030903	54.6511
0.00310814	54.8093
0.00312608	54.968
0.00314413	55.1271
0.00316228	55.2867
0.00318053	55.4468
0.0031989	55.6073
0.00321736	55.7683
0.00323594	55.9297
0.00325462	56.0916
0.00327341	56.254
0.0032923	56.4169
0.00331131	56.5802
0.00333043	56.744
0.00334965	56.9082
0.00336899	57.073
0.00338844	57.2382
0.003408	57.4039
0.00342768	57.57
0.00344747	57.7367
0.00346737	57.9038
0.00348739	58.0714
0.00350752	58.2395
0.00352777	58.4081
0.00354813	58.5771
0.00356862	58.7467
0.00358922	58.9167
0.00360994	59.0872
0.00363078	59.2583
0.00365174	59.4297
0.00367282	59.6018
0.00369403	59.7743
0.00371535	59.9472
0.0037368	60.1208
0.00375837	60.2947
0.00378007	60.4692
0.00380189	60.6442
0.00382384	60.8197
0.00384592	60.9958
0.00386812	61.1723
0.00389045	61.3493
0.00391291	61.5268
0.0039355	61.7049
0.00395822	61.8834
0.00398107	62.0625
0.00400405	62.2421
0.00402717	62.4222
0.00405042	62.6029
0.0040738	62.784
0.00409732	62.9657
0.00412098	63.1479
0.00414477	63.3306
0.00416869	63.5138
0.00419276	63.6976
0.00421697	63.8819
0.00424131	64.0667
0.0042658	64.2521
0.00429042	64.438
0.00431519	64.6245
0.0043401	64.8115
0.00436516	64.999
0.00439036	65.187
0.0044157	65.3756
0.0044412	65.5647
0.00446684	65.7544
0.00449262	65.9447
0.00451856	66.1355
0.00454465	66.3268
0.00457088	66.5187
0.00459727	66.7111
0.00462381	66.9041
0.0046505	67.0977
0.00467735	67.2918
0.00470435	67.4864
0.00473151	67.6816
0.00475883	67.8774
0.0047863	68.0738
0.00481393	68.2707
0.00484172	68.4682
0.00486968	68.6662
0.00489779	68.8649
0.00492606	69.0641
0.0049545	69.2638
0.0049831	69.4642
0.00501187	69.6651
0.00504081	69.8666
0.00506991	70.0687
0.00509918	70.2714
0.00512861	70.4746
0.00515822	70.6785
0.005188	70.8829
0.00521795	71.0879
0.00524807	71.2935
0.00527837	71.4997
0.00530884	71.7065
0.00533949	71.9139
0.00537032	72.1219
0.00540132	72.3305
0.0054325	72.5397
0.00546387	72.7495
0.00549541	72.9598
0.00552713	73.1708
0.00555904	73.3824
0.00559114	73.5947
0.00562341	73.8075
0.00565588	74.0209
0.00568853	74.235
0.00572137	74.4497
0.0057544	74.665
0.00578762	74.8809
0.00582103	75.0974
0.00585464	75.3146
0.00588844	75.5324
0.00592243	75.7508
0.00595662	75.9699
0.00599101	76.1895
0.0060256	76.4098
0.00606038	76.6308
0.00609537	76.8524
0.00613056	77.0746
0.00616595	77.2974
0.00620155	77.521
0.00623735	77.7451
0.00627336	77.9699
0.00630957	78.1953
0.006346	78.4214
0.00638263	78.6482
0.00641948	78.8756
0.00645654	79.1036
0.00649382	79.3323
0.00653131	79.5617
0.00656901	79.7918
0.00660693	80.0224
0.00664508	80.2538
0.00668344	80.4858
0.00672202	80.7185
0.00676083	80.9519
0.00679986	81.1859
0.00683912	81.4207
0.0068786	81.656
0.00691831	81.8921
0.00695825	82.1288
0.00699842	82.3663
0.00703882	82.6044
0.00707946	82.8432
0.00712033	83.0827
0.00716143	83.3229
0.00720278	83.5637
0.00724436	83.8053
0.00728618	84.0476
0.00732825	84.2905
0.00737055	84.5342
0.0074131	84.7785
0.0074559	85.0236
0.00749894	85.2694
0.00754223	85.5159
0.00758578	85.7631
0.00762957	86.011
0.00767361	86.2596
0.00771792	86.5089
0.00776247	86.759
0.00780728	87.0098
0.00785236	87.2613
0.00789769	87.5135
0.00794328	87.7664
0.00798914	88.0201
0.00803526	88.2745
0.00808165	88.5297
0.00812831	88.7856
0.00817523	89.0422
0.00822243	89.2995
0.0082699	89.5576
0.00831764	89.8165
0.00836566	90.0761
0.00841395	90.3364
0.00846253	90.5975
0.00851138	90.8593
0.00856052	91.1219
0.00860994	91.3853
0.00865964	91.6494
0.00870964	91.9143
0.00875992	92.1799
0.00881049	92.4463
0.00886135	92.7135
0.00891251	92.9814
0.00896396	93.2501
0.00901571	93.5196
0.00906776	93.7899
0.00912011	94.4188
0.00917276	94.9037
0.00922571	95.1776
0.00927897	95.4522
0.00933254	95.7277
0.00938642	96.0039
0.00944061	96.3499
0.00949511	96.6279
0.00954993	96.9066
0.00960506	97.3728
0.00966051	97.6537
0.00971628	97.9352
0.00977237	98.2176
0.00982879	98.5009
0.00988553	98.785
0.0099426	99.0698
0.01	99.3781
0.0100577	99.6648
0.0101158	99.952
0.0101742	100.24
0.0102329	100.529
0.010292	100.819
0.0103514	101.11
0.0104112	101.401
0.0104713	101.693
0.0105317	101.987
0.0105925	102.281
0.0106537	102.576
0.0107152	102.871
0.0107771	103.192
0.0108393	103.514
0.0109018	103.812
0.0109648	104.112
0.0110281	104.411
0.0110917	104.762
0.0111558	105.064
0.0112202	105.367
0.011285	105.67
0.0113501	105.975
0.0114156	106.28
0.0114815	106.586
0.0115478	106.893
0.0116145	107.201
0.0116815	107.509
0.011749	107.819
0.0118168	108.129
0.011885	108.441
0.0119536	108.753
0.0120226	109.066
0.0120921	109.38
0.0121619	109.696
0.0122321	110.011
0.0123027	110.328
0.0123737	110.646
0.0124451	110.965
0.012517	111.284
0.0125893	111.605
0.0126619	111.926
0.012735	112.248
0.0128086	112.571
0.0128825	112.896
0.0129569	113.221
0.0130317	113.547
0.0131069	113.874
0.0131826	114.202
0.0132587	114.531
0.0133352	114.861
0.0134122	115.191
0.0134896	115.523
0.0135675	115.856
0.0136458	116.189
0.0137246	116.524
0.0138038	116.86
0.0138835	117.196
0.0139637	117.534
0.0140443	117.872
0.0141254	118.211
0.0142069	118.552
0.0142889	118.893
0.0143714	119.235
0.0144544	119.579
0.0145378	119.923
0.0146218	120.268
0.0147062	120.615
0.0147911	120.962
0.0148765	121.31
0.0149624	121.66
0.0150487	122.01
0.0151356	122.361
0.015223	122.714
0.0153109	123.067
0.0153993	123.421
0.0154882	123.777
0.0155776	124.133
0.0156675	124.491
0.015758	124.849
0.0158489	125.209
0.0159404	125.569
0.0160325	125.931
0.016125	126.293
0.0162181	126.657
0.0163117	127.022
0.0164059	127.387
0.0165006	127.754
0.0165959	128.122
0.0166917	128.491
0.016788	128.861
0.016885	129.232
0.0169824	129.604
0.0170805	129.977
0.0171791	130.352
0.0172783	130.727
0.017378	131.103
0.0174783	131.481
0.0175792	131.859
0.0176807	132.239
0.0177828	132.62
0.0178855	133.002
0.0179887	133.385
0.0180926	133.769
0.018197	134.154
0.0183021	134.54
0.0184077	134.927
0.018514	135.316
0.0186209	135.705
0.0187284	136.096
0.0188365	136.488
0.0189452	136.881
0.0190546	137.275
0.0191646	137.67
0.0192752	138.067
0.0193865	138.464
0.0194984	138.863
0.019611	139.263
0.0197242	139.664
0.0198381	140.066
0.0199526	140.469
0.0200678	140.874
0.0201837	141.279
0.0203002	141.686
0.0204174	142.094
0.0205353	142.503
0.0206538	142.913
0.020773	143.325
0.020893	143.737
0.0210136	144.151
0.0211349	144.566
0.0212569	144.982
0.0213796	145.4
0.021503	145.818
0.0216272	146.238
0.021752	146.659
0.0218776	147.081
0.0220039	147.505
0.0221309	147.93
0.0222587	148.355
0.0223872	148.783
0.0225165	149.211
0.0226464	149.64
0.0227772	150.071
0.0229087	150.503
0.0230409	150.937
0.0231739	151.371
0.0233077	151.807
0.0234423	152.244
0.0235776	152.682
0.0237137	153.122
0.0238506	153.562
0.0239883	154.004
0.0241268	154.448
0.0242661	154.892
0.0244062	155.338
0.0245471	155.786
0.0246888	156.234
0.0248313	156.684
0.0249747	157.135
0.0251189	157.587
0.0252639	158.041
0.0254097	158.496
0.0255564	158.952
0.025704	159.41
0.0258523	159.869
0.0260016	160.329
0.0261517	160.79
0.0263027	161.253
0.0264545	161.717
0.0266073	162.183
0.0267609	162.65
0.0269153	163.118
0.0270707	163.587
0.027227	164.058
0.0273842	164.531
0.0275423	165.004
0.0277013	165.479
0.0278612	165.956
0.0280221	166.433
0.0281838	166.912
0.0283465	167.393
0.0285102	167.874
0.0286748	168.358
0.0288403	168.842
0.0290068	169.329
0.0291743	169.816
0.0293427	170.304
0.0295121	170.795
0.0296825	171.286
0.0298538	171.779
0.0300262	172.274
0.0301995	172.77
0.0303739	173.267
0.0305492	173.766
0.0307256	174.266
0.030903	174.767
0.0310814	175.27
0.0312608	175.775
0.0314413	176.281
0.0316228	176.788
0.0318053	177.297
0.031989	177.807
0.0321736	178.319
0.0323594	178.833
0.0325462	179.347
0.0327341	179.863
0.032923	180.381
0.0331131	180.9
0.0333043	181.421
0.0334965	181.943
0.0336899	182.467
0.0338844	182.992
0.03408	183.519
0.0342768	184.047
0.0344747	184.577
0.0346737	185.108
0.0348739	185.64
0.0350752	186.175
0.0352777	186.711
0.0354813	187.248
0.0356862	187.787
0.0358922	188.327
0.0360994	188.869
0.0363078	189.413
0.0365174	189.958
0.0367282	190.505
0.0369403	191.053
0.0371535	191.603
0.037368	192.154
0.0375837	192.707
0.0378007	193.262
0.0380189	193.818
0.0382384	194.376
0.0384592	194.935
0.0386812	195.496
0.0389045	196.059
0.0391291	196.623
0.039355	197.189
0.0395822	197.756
0.0398107	198.325
0.0400405	198.896
0.0402717	199.468
0.0405042	200.042
0.040738	200.618
0.0409732	201.195
0.0412098	201.774
0.0414477	202.355
0.0416869	202.938
0.0419276	203.521
0.0421697	204.107
0.0424131	204.694
0.042658	205.284
0.0429042	205.874
0.0431519	206.467
0.043401	207.061
0.0436516	207.657
0.0439036	208.254
0.044157	208.853
0.044412	209.454
0.0446684	210.057
0.0449262	210.662
0.0451856	211.268
0.0454465	211.876
0.0457088	212.485
0.0459727	213.097
0.0462381	213.71
0.046505	214.325
0.0467735	214.941
0.0470435	215.56
0.0473151	216.18
0.0475883	216.802
0.047863	217.426
0.0481393	218.052
0.0484172	218.679
0.0486968	219.308
0.0489779	219.939
0.0492606	220.572
0.049545	221.207
0.049831	221.843
0.0501187	222.481
0.0504081	223.122
0.0506991	223.764
0.0509918	224.407
0.0512861	225.053
0.0515822	225.701
0.05188	226.35
0.0521795	227.001
0.0524807	227.654
0.0527837	228.309
0.0530884	228.966
0.0533949	229.625
0.0537032	230.286
0.0540132	230.948
0.054325	231.613
0.0546387	232.279
0.0549541	232.947
0.0552713	233.617
0.0555904	234.29
0.0559114	234.964
0.0562341	235.639
0.0565588	236.317
0.0568853	236.997
0.0572137	237.679
0.057544	238.363
0.0578762	239.049
0.0582103	239.736
0.0585464	240.426
0.0588844	241.117
0.0592243	241.811
0.0595662	242.507
0.0599101	243.204
0.060256	243.904
0.0606038	244.606
0.0609537	245.309
0.0613056	246.015
0.0616595	246.723
0.0620155	247.433
0.0623735	248.144
0.0627336	248.858
0.0630957	249.574
0.06346	250.292
0.0638263	251.012
0.0641948	251.734
0.0645654	252.458
0.0649382	253.184
0.0653131	253.912
0.0656901	254.643
0.0660693	255.375
0.0664508	256.11
0.0668344	256.847
0.0672202	257.585
0.0676083	258.326
0.0679986	259.069
0.0683912	259.814
0.068786	260.562
0.0691831	261.312
0.0695825	262.063
0.0699842	262.817
0.0703882	263.573
0.0707946	264.331
0.0712033	265.091
0.0716143	265.854
0.0720278	266.618
0.0724436	267.385
0.0728618	268.154
0.0732825	268.925
0.0737055	269.699
0.074131	270.475
0.074559	271.252
0.0749894	272.032
0.0754223	272.815
0.0758578	273.6
0.0762957	274.387
0.0767361	275.176
0.0771792	275.967
0.0776247	276.761
0.0780728	277.557
0.0785236	278.355
0.0789769	279.155
0.0794328	279.958
0.0798914	280.763
0.0803526	281.571
0.0808165	282.381
0.0812831	283.193
0.0817523	284.007
0.0822243	284.824
0.082699	285.643
0.0831764	286.464
0.0836566	287.288
0.0841395	288.114
0.0846253	288.943
0.0851138	289.774
0.0856052	290.607
0.0860994	291.443
0.0865964	292.281
0.0870964	293.121
0.0875992	293.964
0.0881049	294.809
0.0886135	295.657
0.0891251	296.507
0.0896396	297.36
0.0901571	298.215
0.0906776	299.073
0.0912011	299.932
0.0917276	300.795
0.0922571	301.66
0.0927897	302.527
0.0933254	303.397
0.0938642	304.27
0.0944061	305.144
0.0949511	306.022
0.0954993	306.902
0.0960506	307.784
0.0966051	308.669
0.0971628	309.557
0.0977237	310.447
0.0982879	311.339
0.0988553	312.235
0.099426	313.132
0.1	314.032
0.100577	314.935
0.101158	315.841
0.101742	316.749
0.102329	317.66
0.10292	318.573
0.103514	319.489
0.104112	320.407
0.104713	321.328
0.105317	322.252
0.105925	323.179
0.106537	324.108
0.107152	325.039
0.107771	325.974
0.108393	326.911
0.109018	327.851
0.109648	328.793
0.110281	329.739
0.110917	330.687
0.111558	331.637
0.112202	332.591
0.11285	333.547
0.113501	334.506
0.114156	335.467
0.114815	336.431
0.115478	337.399
0.116145	338.368
0.116815	339.341
0.11749	340.316
0.118168	341.295
0.11885	342.276
0.119536	343.26
0.120226	344.246
0.120921	345.236
0.121619	346.228
0.122321	347.223
0.123027	348.221
0.123737	349.222
0.124451	350.226
0.12517	351.233
0.125893	352.242
0.126619	353.255
0.12735	354.27
0.128086	355.288
0.128825	356.31
0.129569	357.334
0.130317	358.361
0.131069	359.391
0.131826	360.423
0.132587	361.46
0.133352	362.499
0.134122	363.54
0.134896	364.585
0.135675	365.633
0.136458	366.683
0.137246	367.737
0.138038	368.794
0.138835	369.854
0.139637	370.917
0.140443	371.983
0.141254	373.052
0.142069	374.124
0.142889	375.199
0.143714	376.277
0.144544	377.359
0.145378	378.443
0.146218	379.53
0.147062	380.621
0.147911	381.715
0.148765	382.812
0.149624	383.912
0.150487	385.015
0.151356	386.121
0.15223	387.231
0.153109	388.343
0.153993	389.459
0.154882	390.579
0.155776	391.701
0.156675	392.826
0.15758	393.955
0.158489	395.087
0.159404	396.222
0.160325	397.36
0.16125	398.502
0.162181	399.647
0.163117	400.796
0.164059	401.947
0.165006	403.102
0.165959	404.26
0.166917	405.422
0.16788	406.586
0.16885	407.755
0.169824	408.926
0.170805	410.101
0.171791	411.279
0.172783	412.461
0.17378	413.645
0.174783	414.834
0.175792	416.026
0.176807	417.221
0.177828	418.419
0.178855	419.621
0.179887	420.827
0.180926	422.036
0.18197	423.248
0.183021	424.464
0.184077	425.683
0.18514	426.906
0.186209	428.132
0.187284	429.362
0.188365	430.595
0.189452	431.832
0.190546	433.073
0.191646	434.317
0.192752	435.564
0.193865	436.815
0.194984	438.07
0.19611	439.328
0.197242	440.59
0.198381	441.856
0.199526	443.125
0.200678	444.397
0.201837	445.674
0.203002	446.954
0.204174	448.238
0.205353	449.525
0.206538	450.816
0.20773	452.111
0.20893	453.409
0.210136	454.712
0.211349	456.017
0.212569	457.327
0.213796	458.64
0.21503	459.958
0.216272	461.279
0.21752	462.603
0.218776	463.932
0.220039	465.264
0.221309	466.6
0.222587	467.94
0.223872	469.284
0.225165	470.631
0.226464	471.983
0.227772	473.338
0.229087	474.697
0.230409	476.06
0.231739	477.427
0.233077	478.798
0.234423	480.173
0.235776	481.552
0.237137	482.934
0.238506	484.321
0.239883	485.712
0.241268	487.106
0.242661	488.505
0.244062	489.907
0.245471	491.314
0.246888	492.725
0.248313	494.139
0.249747	495.558
0.251189	496.981
0.252639	498.408
0.254097	499.838
0.255564	501.273
0.25704	502.712
0.258523	504.156
0.260016	505.603
0.261517	507.055
0.263027	508.51
0.264545	509.97
0.266073	511.434
0.267609	512.902
0.269153	514.374
0.270707	515.851
0.27227	517.332
0.273842	518.817
0.275423	520.306
0.277013	521.8
0.278612	523.297
0.280221	524.799
0.281838	526.306
0.283465	527.817
0.285102	529.331
0.286748	530.851
0.288403	532.374
0.290068	533.902
0.291743	535.435
0.293427	536.972
0.295121	538.513
0.296825	540.058
0.298538	541.608
0.300262	543.163
0.301995	544.722
0.303739	546.285
0.305492	547.853
0.307256	549.425
0.30903	551.001
0.310814	552.583
0.312608	554.169
0.314413	555.759
0.316228	557.354
0.318053	558.953
0.31989	560.557
0.321736	562.166
0.323594	563.779
0.325462	565.397
0.327341	567.019
0.32923	568.646
0.331131	570.278
0.333043	571.914
0.334965	573.555
0.336899	575.2
0.338844	576.851
0.3408	578.506
0.342768	580.166
0.344747	581.83
0.346737	583.5
0.348739	585.174
0.350752	586.853
0.352777	588.536
0.354813	590.225
0.356862	591.918
0.358922	593.616
0.360994	595.319
0.363078	597.027
0.365174	598.74
0.367282	600.457
0.369403	602.18
0.371535	603.907
0.37368	605.64
0.375837	607.377
0.378007	609.119
0.380189	610.867
0.382384	612.619
0.384592	614.376
0.386812	616.138
0.389045	617.906
0.391291	619.678
0.39355	621.455
0.395822	623.238
0.398107	625.025
0.400405	626.818
0.402717	628.616
0.405042	630.419
0.40738	632.227
0.409732	634.04
0.412098	635.858
0.414477	637.682
0.416869	639.511
0.419276	641.345
0.421697	643.184
0.424131	645.028
0.42658	646.878
0.429042	648.733
0.431519	650.593
0.43401	652.459
0.436516	654.33
0.439036	656.206
0.44157	658.088
0.44412	659.975
0.446684	661.867
0.449262	663.765
0.451856	665.668
0.454465	667.577
0.457088	669.491
0.459727	671.41
0.462381	673.335
0.46505	675.266
0.467735	677.202
0.470435	679.143
0.473151	681.09
0.475883	683.043
0.47863	685.001
0.481393	686.965
0.484172	688.934
0.486968	690.909
0.489779	692.89
0.492606	694.876
0.49545	696.868
0.49831	698.866
0.501187	700.869
0.504081	702.878
0.506991	704.893
0.509918	706.913
0.512861	708.939
0.515822	710.971
0.5188	713.009
0.521795	715.053
0.524807	717.102
0.527837	719.158
0.530884	721.219
0.533949	723.286
0.537032	725.359
0.540132	727.437
0.54325	729.522
0.546387	731.613
0.549541	733.709
0.552713	735.812
0.555904	737.921
0.559114	740.035
0.562341	742.156
0.565588	744.283
0.568853	746.415
0.572137	748.554
0.57544	750.699
0.578762	752.85
0.582103	755.007
0.585464	757.17
0.588844	759.34
0.592243	761.515
0.595662	763.697
0.599101	765.885
0.60256	768.08
0.606038	770.28
0.609537	772.487
0.613056	774.7
0.616595	776.92
0.620155	779.145
0.623735	781.377
