E [MeV]	dEdx [keV/microm]
0.001	52.3344
0.00100577	52.4853
0.00101158	52.6366
0.00101742	52.7883
0.00102329	52.9404
0.0010292	53.093
0.00103514	53.246
0.00104112	53.3995
0.00104713	53.5534
0.00105317	53.7078
0.00105925	53.8626
0.00106537	54.0178
0.00107152	54.1736
0.00107771	54.3297
0.00108393	54.4863
0.00109018	54.6434
0.00109648	54.8009
0.00110281	54.9588
0.00110917	55.1172
0.00111558	55.2761
0.00112202	55.4354
0.0011285	55.5952
0.00113501	55.7554
0.00114156	55.9162
0.00114815	56.0773
0.00115478	56.239
0.00116145	56.4011
0.00116815	56.5637
0.0011749	56.7267
0.00118168	56.8902
0.0011885	57.0542
0.00119536	57.2186
0.00120226	57.3835
0.00120921	57.5489
0.00121619	57.7148
0.00122321	57.8812
0.00123027	58.048
0.00123737	58.2153
0.00124451	58.3831
0.0012517	58.5514
0.00125893	58.7202
0.00126619	58.8894
0.0012735	59.0592
0.00128086	59.2294
0.00128825	59.4001
0.00129569	59.5713
0.00130317	59.743
0.00131069	59.9152
0.00131826	60.0879
0.00132587	60.2612
0.00133352	60.4348
0.00134122	60.609
0.00134896	60.7837
0.00135675	60.9589
0.00136458	61.1346
0.00137246	61.3108
0.00138038	61.4876
0.00138835	61.6648
0.00139637	61.8425
0.00140443	62.0208
0.00141254	62.1996
0.00142069	62.3789
0.00142889	62.5587
0.00143714	62.739
0.00144544	62.9198
0.00145378	63.1012
0.00146218	63.283
0.00147062	63.4654
0.00147911	63.6484
0.00148765	63.8318
0.00149624	64.0158
0.00150487	64.2004
0.00151356	64.3854
0.0015223	64.571
0.00153109	64.7571
0.00153993	64.9437
0.00154882	65.1309
0.00155776	65.3187
0.00156675	65.507
0.0015758	65.6958
0.00158489	65.8851
0.00159404	66.075
0.00160325	66.2655
0.0016125	66.4565
0.00162181	66.648
0.00163117	66.8401
0.00164059	67.0328
0.00165006	67.226
0.00165959	67.4198
0.00166917	67.6141
0.0016788	67.809
0.0016885	68.0044
0.00169824	68.2005
0.00170805	68.397
0.00171791	68.5942
0.00172783	68.7919
0.0017378	68.9902
0.00174783	69.189
0.00175792	69.3885
0.00176807	69.5885
0.00177828	69.7891
0.00178855	69.9902
0.00179887	70.192
0.00180926	70.3943
0.0018197	70.5972
0.00183021	70.8007
0.00184077	71.0047
0.0018514	71.2094
0.00186209	71.4146
0.00187284	71.6205
0.00188365	71.8269
0.00189452	72.034
0.00190546	72.2416
0.00191646	72.4498
0.00192752	72.6586
0.00193865	72.8681
0.00194984	73.0781
0.0019611	73.2888
0.00197242	73.5
0.00198381	73.7119
0.00199526	73.9243
0.00200678	74.1374
0.00201837	74.3511
0.00203002	74.5654
0.00204174	74.7803
0.00205353	74.9959
0.00206538	75.2121
0.0020773	75.4288
0.0020893	75.6462
0.00210136	75.8643
0.00211349	76.0829
0.00212569	76.3023
0.00213796	76.5222
0.0021503	76.7428
0.00216272	76.9639
0.0021752	77.1858
0.00218776	77.4082
0.00220039	77.6314
0.00221309	77.8551
0.00222587	78.0795
0.00223872	78.3046
0.00225165	78.5303
0.00226464	78.7567
0.00227772	78.9837
0.00229087	79.2113
0.00230409	79.4397
0.00231739	79.6686
0.00233077	79.8983
0.00234423	80.1286
0.00235776	80.3595
0.00237137	80.5912
0.00238506	80.8235
0.00239883	81.0564
0.00241268	81.29
0.00242661	81.5244
0.00244062	81.7593
0.00245471	81.995
0.00246888	82.2313
0.00248313	82.4684
0.00249747	82.7061
0.00251189	82.9444
0.00252639	83.1835
0.00254097	83.4233
0.00255564	83.6638
0.0025704	83.9049
0.00258523	84.1468
0.00260016	84.3893
0.00261517	84.6325
0.00263027	84.8765
0.00264545	85.1211
0.00266073	85.3665
0.00267609	85.6125
0.00269153	85.8593
0.00270707	86.1068
0.0027227	86.355
0.00273842	86.6039
0.00275423	86.8535
0.00277013	87.1039
0.00278612	87.3549
0.00280221	87.6067
0.00281838	87.8592
0.00283465	88.1125
0.00285102	88.3664
0.00286748	88.6212
0.00288403	88.8766
0.00290068	89.1328
0.00291743	89.3897
0.00293427	89.6473
0.00295121	89.9057
0.00296825	90.1649
0.00298538	90.4247
0.00300262	90.6854
0.00301995	90.9468
0.00303739	91.2089
0.00305492	91.4718
0.00307256	91.7355
0.0030903	91.9999
0.00310814	92.2651
0.00312608	92.531
0.00314413	92.7977
0.00316228	93.0652
0.00318053	93.3335
0.0031989	93.6025
0.00321736	93.8723
0.00323594	94.1428
0.00325462	94.4141
0.00327341	94.6863
0.0032923	94.9592
0.00331131	95.233
0.00333043	95.5074
0.00334965	95.7826
0.00336899	96.0589
0.00338844	96.3357
0.003408	96.6135
0.00342768	96.8918
0.00344747	97.1712
0.00346737	97.4512
0.00348739	97.7322
0.00350752	98.0138
0.00352777	98.2964
0.00354813	98.5797
0.00356862	98.8637
0.00358922	99.1487
0.00360994	99.4346
0.00363078	99.7211
0.00365174	100.009
0.00367282	100.297
0.00369403	100.586
0.00371535	100.876
0.0037368	101.167
0.00375837	101.458
0.00378007	101.751
0.00380189	102.044
0.00382384	102.338
0.00384592	102.633
0.00386812	102.929
0.00389045	103.226
0.00391291	103.523
0.0039355	103.821
0.00395822	104.121
0.00398107	104.421
0.00400405	104.722
0.00402717	105.024
0.00405042	105.326
0.0040738	105.63
0.00409732	105.934
0.00412098	106.24
0.00414477	106.546
0.00416869	106.853
0.00419276	107.161
0.00421697	107.47
0.00424131	107.78
0.0042658	108.09
0.00429042	108.402
0.00431519	108.715
0.0043401	109.028
0.00436516	109.342
0.00439036	109.657
0.0044157	109.973
0.0044412	110.29
0.00446684	110.608
0.00449262	110.927
0.00451856	111.247
0.00454465	111.567
0.00457088	111.889
0.00459727	112.211
0.00462381	112.535
0.0046505	112.859
0.00467735	113.185
0.00470435	113.511
0.00473151	113.838
0.00475883	114.166
0.0047863	114.493
0.00481393	114.822
0.00484172	115.151
0.00486968	115.482
0.00489779	115.813
0.00492606	116.146
0.0049545	116.479
0.0049831	116.813
0.00501187	117.147
0.00504081	117.482
0.00506991	117.817
0.00509918	118.154
0.00512861	118.492
0.00515822	118.83
0.005188	119.17
0.00521795	119.51
0.00524807	119.852
0.00527837	120.194
0.00530884	120.537
0.00533949	120.882
0.00537032	121.227
0.00540132	121.573
0.0054325	121.921
0.00546387	122.269
0.00549541	122.619
0.00552713	122.969
0.00555904	123.32
0.00559114	123.673
0.00562341	124.026
0.00565588	124.381
0.00568853	124.736
0.00572137	125.093
0.0057544	125.449
0.00578762	125.806
0.00582103	126.164
0.00585464	126.523
0.00588844	126.883
0.00592243	127.244
0.00595662	127.606
0.00599101	127.969
0.0060256	128.331
0.00606038	128.694
0.00609537	129.058
0.00613056	129.424
0.00616595	129.79
0.00620155	130.158
0.00623735	130.526
0.00627336	130.896
0.00630957	131.266
0.006346	131.638
0.00638263	132.011
0.00641948	132.385
0.00645654	132.76
0.00649382	133.136
0.00653131	133.513
0.00656901	133.891
0.00660693	134.27
0.00664508	134.651
0.00668344	135.032
0.00672202	135.414
0.00676083	135.797
0.00679986	136.18
0.00683912	136.564
0.0068786	136.948
0.00691831	137.334
0.00695825	137.722
0.00699842	138.11
0.00703882	138.499
0.00707946	138.89
0.00712033	139.282
0.00716143	139.674
0.00720278	140.068
0.00724436	140.463
0.00728618	140.859
0.00732825	141.257
0.00737055	141.655
0.0074131	142.055
0.0074559	142.456
0.00749894	142.858
0.00754223	143.261
0.00758578	143.665
0.00762957	144.071
0.00767361	144.477
0.00771792	144.885
0.00776247	145.294
0.00780728	145.704
0.00785236	146.115
0.00789769	146.528
0.00794328	146.942
0.00798914	147.357
0.00803526	147.773
0.00808165	148.19
0.00812831	148.609
0.00817523	149.028
0.00822243	149.449
0.0082699	149.871
0.00831764	150.295
0.00836566	150.719
0.00841395	151.145
0.00846253	151.572
0.00851138	152.001
0.00856052	152.43
0.00860994	152.861
0.00865964	153.293
0.00870964	153.726
0.00875992	154.16
0.00881049	154.596
0.00886135	155.033
0.00891251	155.472
0.00896396	155.911
0.00901571	156.352
0.00906776	156.794
0.00912011	157.237
0.00917276	157.682
0.00922571	158.128
0.00927897	158.576
0.00933254	159.024
0.00938642	159.474
0.00944061	159.925
0.00949511	160.377
0.00954993	160.831
0.00960506	161.286
0.00966051	161.743
0.00971628	162.201
0.00977237	162.66
0.00982879	163.12
0.00988553	163.582
0.0099426	164.045
0.01	164.509
0.0100577	164.975
0.0101158	165.442
0.0101742	165.91
0.0102329	166.38
0.010292	166.851
0.0103514	167.324
0.0104112	167.798
0.0104713	168.273
0.0105317	168.75
0.0105925	169.228
0.0106537	169.707
0.0107152	170.188
0.0107771	170.67
0.0108393	171.154
0.0109018	171.639
0.0109648	172.126
0.0110281	172.613
0.0110917	173.103
0.0111558	173.593
0.0112202	174.085
0.011285	174.579
0.0113501	175.074
0.0114156	175.57
0.0114815	176.068
0.0115478	176.567
0.0116145	177.068
0.0116815	177.57
0.011749	178.074
0.0118168	178.579
0.011885	179.086
0.0119536	179.593
0.0120226	180.103
0.0120921	180.614
0.0121619	181.127
0.0122321	181.641
0.0123027	182.156
0.0123737	182.673
0.0124451	183.191
0.012517	183.711
0.0125893	184.233
0.0126619	184.756
0.012735	185.28
0.0128086	185.806
0.0128825	186.334
0.0129569	186.863
0.0130317	187.394
0.0131069	187.926
0.0131826	188.46
0.0132587	188.995
0.0133352	189.532
0.0134122	190.07
0.0134896	190.61
0.0135675	191.152
0.0136458	191.695
0.0137246	192.24
0.0138038	192.786
0.0138835	193.334
0.0139637	193.884
0.0140443	194.435
0.0141254	194.987
0.0142069	195.541
0.0142889	196.097
0.0143714	196.655
0.0144544	197.214
0.0145378	197.775
0.0146218	198.338
0.0147062	198.901
0.0147911	199.467
0.0148765	200.034
0.0149624	200.603
0.0150487	201.174
0.0151356	201.746
0.015223	202.32
0.0153109	202.896
0.0153993	203.473
0.0154882	204.052
0.0155776	204.633
0.0156675	205.216
0.015758	205.799
0.0158489	206.385
0.0159404	206.973
0.0160325	207.562
0.016125	208.153
0.0162181	208.746
0.0163117	209.34
0.0164059	209.936
0.0165006	210.534
0.0165959	211.134
0.0166917	211.735
0.016788	212.338
0.016885	212.943
0.0169824	213.55
0.0170805	214.158
0.0171791	214.768
0.0172783	215.38
0.017378	215.994
0.0174783	216.609
0.0175792	217.227
0.0176807	217.846
0.0177828	218.467
0.0178855	219.09
0.0179887	219.714
0.0180926	220.341
0.018197	220.969
0.0183021	221.599
0.0184077	222.23
0.018514	222.864
0.0186209	223.5
0.0187284	224.137
0.0188365	224.777
0.0189452	225.418
0.0190546	226.011
0.0191646	226.566
0.0192752	227.122
0.0193865	227.681
0.0194984	228.241
0.019611	228.803
0.0197242	229.367
0.0198381	229.933
0.0199526	230.501
0.0200678	231.001
0.0201837	231.472
0.0203002	231.946
0.0204174	232.422
0.0205353	232.899
0.0206538	233.378
0.020773	233.859
0.020893	234.341
0.0210136	234.826
0.0211349	235.312
0.0212569	235.8
0.0213796	236.29
0.021503	236.781
0.0216272	237.274
0.021752	237.769
0.0218776	238.265
0.0220039	238.764
0.0221309	239.264
0.0222587	239.766
0.0223872	240.269
0.0225165	240.775
0.0226464	241.282
0.0227772	241.79
0.0229087	242.301
0.0230409	242.767
0.0231739	243.172
0.0233077	243.579
0.0234423	243.988
0.0235776	244.398
0.0237137	244.811
0.0238506	245.224
0.0239883	245.632
0.0241268	245.931
0.0242661	246.233
0.0244062	246.535
0.0245471	246.84
0.0246888	247.146
0.0248313	247.453
0.0249747	247.762
0.0251189	248.073
0.0252639	248.385
0.0254097	248.698
0.0255564	249.013
0.025704	249.329
0.0258523	249.647
0.0260016	249.966
0.0261517	250.287
0.0263027	250.608
0.0264545	250.932
0.0266073	251.257
0.0267609	251.583
0.0269153	251.91
0.0270707	252.161
0.027227	252.366
0.0273842	252.572
0.0275423	252.778
0.0277013	252.987
0.0278612	253.196
0.0280221	253.407
0.0281838	253.619
0.0283465	253.832
0.0285102	254.046
0.0286748	254.262
0.0288403	254.478
0.0290068	254.696
0.0291743	254.915
0.0293427	255.135
0.0295121	255.356
0.0296825	255.578
0.0298538	255.802
0.0300262	256.026
0.0301995	256.252
0.0303739	256.478
0.0305492	256.706
0.0307256	256.935
0.030903	257.164
0.0310814	257.395
0.0312608	257.627
0.0314413	257.86
0.0316228	258.094
0.0318053	258.329
0.031989	258.565
0.0321736	258.802
0.0323594	259.04
0.0325462	259.278
0.0327341	259.518
0.032923	259.759
0.0331131	260
0.0333043	260.243
0.0334965	260.487
0.0336899	260.731
0.0338844	260.977
0.03408	261.223
0.0342768	261.471
0.0344747	261.719
0.0346737	261.968
0.0348739	262.218
0.0350752	262.469
0.0352777	262.721
0.0354813	262.974
0.0356862	263.228
0.0358922	263.483
0.0360994	263.738
0.0363078	263.995
0.0365174	264.252
0.0367282	264.51
0.0369403	264.769
0.0371535	265.029
0.037368	265.29
0.0375837	265.552
0.0378007	265.814
0.0380189	266.078
0.0382384	266.342
0.0384592	266.608
0.0386812	266.874
0.0389045	267.141
0.0391291	267.408
0.039355	267.677
0.0395822	267.947
0.0398107	268.217
0.0400405	268.489
0.0402717	268.761
0.0405042	269.034
0.040738	269.308
0.0409732	269.582
0.0412098	269.858
0.0414477	270.134
0.0416869	270.412
0.0419276	270.69
0.0421697	270.969
0.0424131	271.249
0.042658	271.53
0.0429042	271.812
0.0431519	272.094
0.043401	272.378
0.0436516	272.662
0.0439036	272.948
0.044157	273.234
0.044412	273.521
0.0446684	273.809
0.0449262	274.097
0.0451856	274.387
0.0454465	274.678
0.0457088	274.969
0.0459727	275.261
0.0462381	275.555
0.046505	275.849
0.0467735	276.144
0.0470435	276.44
0.0473151	276.737
0.0475883	277.035
0.047863	277.333
0.0481393	277.633
0.0484172	277.934
0.0486968	278.235
0.0489779	278.538
0.0492606	278.841
0.049545	279.145
0.049831	279.451
0.0501187	279.757
0.0504081	280.064
0.0506991	280.372
0.0509918	280.681
0.0512861	280.991
0.0515822	281.302
0.05188	281.614
0.0521795	281.927
0.0524807	282.241
0.0527837	282.556
0.0530884	282.872
0.0533949	283.189
0.0537032	283.507
0.0540132	283.826
0.054325	284.146
0.0546387	284.467
0.0549541	284.789
0.0552713	285.112
0.0555904	285.436
0.0559114	285.761
0.0562341	286.087
0.0565588	286.415
0.0568853	286.743
0.0572137	287.072
0.057544	287.403
0.0578762	287.734
0.0582103	288.066
0.0585464	288.4
0.0588844	288.735
0.0592243	289.071
0.0595662	289.407
0.0599101	289.745
0.060256	290.084
0.0606038	290.425
0.0609537	290.766
0.0613056	291.108
0.0616595	291.452
0.0620155	291.797
0.0623735	292.143
0.0627336	292.49
0.0630957	292.838
0.06346	293.187
0.0638263	293.538
0.0641948	293.89
0.0645654	294.243
0.0649382	294.596
0.0653131	294.952
0.0656901	295.308
0.0660693	295.666
0.0664508	296.025
0.0668344	296.385
0.0672202	296.747
0.0676083	297.109
0.0679986	297.473
0.0683912	297.838
0.068786	298.205
0.0691831	298.572
0.0695825	298.941
0.0699842	299.312
0.0703882	299.683
0.0707946	300.056
0.0712033	300.43
0.0716143	300.806
0.0720278	301.182
0.0724436	301.56
0.0728618	301.94
0.0732825	302.321
0.0737055	302.702
0.074131	303.086
0.074559	303.471
0.0749894	303.857
0.0754223	304.244
0.0758578	304.633
0.0762957	305.024
0.0767361	305.415
0.0771792	305.808
0.0776247	306.203
0.0780728	306.599
0.0785236	306.996
0.0789769	307.395
0.0794328	307.795
0.0798914	308.197
0.0803526	308.6
0.0808165	309.004
0.0812831	309.41
0.0817523	309.818
0.0822243	310.227
0.082699	310.637
0.0831764	311.049
0.0836566	311.463
0.0841395	311.878
0.0846253	312.295
0.0851138	312.713
0.0856052	313.132
0.0860994	313.553
0.0865964	313.976
0.0870964	314.4
0.0875992	314.826
0.0881049	315.253
0.0886135	315.682
0.0891251	316.113
0.0896396	316.545
0.0901571	316.979
0.0906776	317.415
0.0912011	317.852
0.0917276	318.29
0.0922571	318.73
0.0927897	319.172
0.0933254	319.616
0.0938642	320.061
0.0944061	320.508
0.0949511	320.957
0.0954993	321.407
0.0960506	321.859
0.0966051	322.313
0.0971628	322.768
0.0977237	323.225
0.0982879	323.684
0.0988553	324.144
0.099426	324.607
0.1	325.071
0.100577	325.537
0.101158	326.004
0.101742	326.473
0.102329	326.945
0.10292	327.417
0.103514	327.892
0.104112	328.369
0.104713	328.847
0.105317	329.327
0.105925	329.809
0.106537	330.293
0.107152	330.778
0.107771	331.265
0.108393	331.755
0.109018	332.246
0.109648	332.739
0.110281	333.234
0.110917	333.73
0.111558	334.229
0.112202	334.73
0.11285	335.232
0.113501	335.737
0.114156	336.243
0.114815	336.751
0.115478	337.261
0.116145	337.774
0.116815	338.288
0.11749	338.804
0.118168	339.322
0.11885	339.842
0.119536	340.364
0.120226	340.888
0.120921	341.414
0.121619	341.942
0.122321	342.472
0.123027	343.004
0.123737	343.538
0.124451	344.074
0.12517	344.612
0.125893	345.152
0.126619	345.695
0.12735	346.239
0.128086	346.785
0.128825	347.334
0.129569	347.884
0.130317	348.437
0.131069	348.992
0.131826	349.549
0.132587	350.108
0.133352	350.669
0.134122	351.232
0.134896	351.797
0.135675	352.365
0.136458	352.935
0.137246	353.507
0.138038	354.081
0.138835	354.657
0.139637	355.236
0.140443	355.816
0.141254	356.399
0.142069	356.984
0.142889	357.572
0.143714	358.161
0.144544	358.753
0.145378	359.347
0.146218	359.943
0.147062	360.542
0.147911	361.142
0.148765	361.745
0.149624	362.351
0.150487	362.958
0.151356	363.568
0.15223	364.18
0.153109	364.795
0.153993	365.412
0.154882	366.031
0.155776	366.652
0.156675	367.276
0.15758	367.902
0.158489	368.53
0.159404	369.161
0.160325	369.795
0.16125	370.43
0.162181	371.068
0.163117	371.708
0.164059	372.351
0.165006	372.996
0.165959	373.643
0.166917	374.293
0.16788	374.946
0.16885	375.6
0.169824	376.258
0.170805	376.917
0.171791	377.579
0.172783	378.244
0.17378	378.91
0.174783	379.58
0.175792	380.252
0.176807	380.926
0.177828	381.603
0.178855	382.282
0.179887	382.964
0.180926	383.648
0.18197	384.335
0.183021	385.025
0.184077	385.716
0.18514	386.411
0.186209	387.108
0.187284	387.807
0.188365	388.509
0.189452	389.213
0.190546	389.921
0.191646	390.63
0.192752	391.343
0.193865	392.058
0.194984	392.775
0.19611	393.495
0.197242	394.217
0.198381	394.942
0.199526	395.67
0.200678	396.401
0.201837	397.133
0.203002	397.869
0.204174	398.607
0.205353	399.348
0.206538	400.092
0.20773	400.838
0.20893	401.586
0.210136	402.338
0.211349	403.092
0.212569	403.848
0.213796	404.608
0.21503	405.37
0.216272	406.135
0.21752	406.902
0.218776	407.672
0.220039	408.445
0.221309	409.221
0.222587	409.999
0.223872	410.78
0.225165	411.564
0.226464	412.35
0.227772	413.139
0.229087	413.931
0.230409	414.725
0.231739	415.522
0.233077	416.322
0.234423	417.125
0.235776	417.931
0.237137	418.739
0.238506	419.55
0.239883	420.363
0.241268	421.18
0.242661	421.999
0.244062	422.821
0.245471	423.646
0.246888	424.474
0.248313	425.304
0.249747	426.137
0.251189	426.973
0.252639	427.812
0.254097	428.653
0.255564	429.498
0.25704	430.345
0.258523	431.195
0.260016	432.047
0.261517	432.903
0.263027	433.761
0.264545	434.622
0.266073	435.486
0.267609	436.353
0.269153	437.223
0.270707	438.095
0.27227	438.97
0.273842	439.848
0.275423	440.729
0.277013	441.613
0.278612	442.499
0.280221	443.389
0.281838	444.281
0.283465	445.176
0.285102	446.074
0.286748	446.974
0.288403	447.878
0.290068	448.784
0.291743	449.693
0.293427	450.609
0.295121	451.641
0.296825	452.677
0.298538	453.718
0.300262	454.763
0.301995	455.812
0.303739	456.865
0.305492	457.923
0.307256	458.985
0.30903	460.051
0.310814	461.121
0.312608	462.196
0.314413	463.275
0.316228	464.358
0.318053	465.446
0.31989	466.539
0.321736	467.635
0.323594	468.736
0.325462	469.841
0.327341	470.951
0.32923	472.065
0.331131	473.287
0.333043	474.559
0.334965	475.837
0.336899	477.122
0.338844	478.413
0.3408	479.71
0.342768	481.013
0.344747	482.322
0.346737	483.639
0.348739	484.961
0.350752	486.29
0.352777	487.626
0.354813	488.967
0.356862	490.316
0.358922	491.671
0.360994	493.033
0.363078	494.402
0.365174	495.777
0.367282	497.159
0.369403	498.547
0.371535	499.943
0.37368	501.345
0.375837	502.754
0.378007	504.17
0.380189	505.594
0.382384	507.024
0.384592	508.461
0.386812	509.905
0.389045	511.357
0.391291	512.815
0.39355	514.281
0.395822	515.754
0.398107	517.234
0.400405	518.722
0.402717	520.217
0.405042	521.736
0.40738	523.43
0.409732	525.132
0.412098	526.845
0.414477	528.567
0.416869	530.299
0.419276	532.041
0.421697	533.793
0.424131	535.555
0.42658	537.327
0.429042	539.109
0.431519	540.901
0.43401	542.704
0.436516	544.517
0.439036	546.34
0.44157	548.174
0.44412	550.018
0.446684	551.873
0.449262	553.739
0.451856	555.781
0.454465	557.894
0.457088	560.021
0.459727	562.161
0.462381	564.315
0.46505	566.483
0.467735	568.664
0.470435	570.86
0.473151	573.07
0.475883	575.295
0.47863	577.496
0.481393	579.675
0.484172	581.868
0.486968	584.074
0.489779	586.294
0.492606	588.526
0.49545	590.773
0.49831	593.033
0.501187	595.307
0.504081	597.541
0.506991	599.759
0.509918	601.989
0.512861	604.232
0.515822	606.488
0.5188	608.756
0.521795	611.037
0.524807	613.33
0.527837	615.637
0.530884	617.956
0.533949	620.289
0.537032	622.635
0.540132	625.206
0.54325	627.85
0.546387	630.51
0.549541	633.187
0.552713	635.881
0.555904	638.592
0.559114	641.32
0.562341	644.065
0.565588	646.827
0.568853	649.606
0.572137	652.403
0.57544	655.218
0.578762	658.014
0.582103	660.77
0.585464	663.543
0.588844	666.332
0.592243	669.137
0.595662	671.959
0.599101	674.797
0.60256	677.649
0.606038	680.418
0.609537	683.202
0.613056	686.001
0.616595	688.815
0.620155	691.643
0.623735	694.487
0.627336	697.346
0.630957	700.22
