Stopping power dEdx from Ionisation for Al27[0.0] Z = 13 in Water, process name: ionIoni
E [MeV]	dEdx [MeV/mm]
0.001	22.4269
0.00100577	22.492
0.00101158	22.5572
0.00101742	22.6225
0.00102329	22.6881
0.0010292	22.7539
0.00103514	22.8198
0.00104112	22.886
0.00104713	22.9523
0.00105317	23.0188
0.00105925	23.0855
0.00106537	23.1524
0.00107152	23.2195
0.00107771	23.2868
0.00108393	23.3543
0.00109018	23.422
0.00109648	23.4899
0.00110281	23.558
0.00110917	23.6262
0.00111558	23.6947
0.00112202	23.7634
0.0011285	23.8322
0.00113501	23.9013
0.00114156	23.9705
0.00114815	24.04
0.00115478	24.1097
0.00116145	24.1795
0.00116815	24.2496
0.0011749	24.3198
0.00118168	24.3903
0.0011885	24.461
0.00119536	24.5319
0.00120226	24.6029
0.00120921	24.6742
0.00121619	24.7457
0.00122321	24.8174
0.00123027	24.8893
0.00123737	24.9614
0.00124451	25.0337
0.0012517	25.1062
0.00125893	25.179
0.00126619	25.2519
0.0012735	25.3251
0.00128086	25.3984
0.00128825	25.472
0.00129569	25.5458
0.00130317	25.6198
0.00131069	25.694
0.00131826	25.7684
0.00132587	25.8431
0.00133352	25.9179
0.00134122	25.993
0.00134896	26.0683
0.00135675	26.1438
0.00136458	26.2195
0.00137246	26.2954
0.00138038	26.3716
0.00138835	26.448
0.00139637	26.5246
0.00140443	26.6014
0.00141254	26.6785
0.00142069	26.7557
0.00142889	26.8332
0.00143714	26.9109
0.00144544	26.9888
0.00145378	27.067
0.00146218	27.1454
0.00147062	27.224
0.00147911	27.3028
0.00148765	27.3819
0.00149624	27.4612
0.00150487	27.5407
0.00151356	27.6205
0.0015223	27.7004
0.00153109	27.7806
0.00153993	27.8611
0.00154882	27.9418
0.00155776	28.0227
0.00156675	28.1038
0.0015758	28.1852
0.00158489	28.2668
0.00159404	28.3486
0.00160325	28.4307
0.0016125	28.513
0.00162181	28.5956
0.00163117	28.6784
0.00164059	28.7614
0.00165006	28.8447
0.00165959	28.9282
0.00166917	29.0119
0.0016788	29.0959
0.0016885	29.1801
0.00169824	29.2646
0.00170805	29.3493
0.00171791	29.4343
0.00172783	29.5195
0.0017378	29.6049
0.00174783	29.6906
0.00175792	29.7766
0.00176807	29.8628
0.00177828	29.9492
0.00178855	30.0359
0.00179887	30.1229
0.00180926	30.2101
0.0018197	30.2975
0.00183021	30.3852
0.00184077	30.4731
0.0018514	30.5613
0.00186209	30.6498
0.00187284	30.7385
0.00188365	30.8275
0.00189452	30.9167
0.00190546	31.0062
0.00191646	31.0959
0.00192752	31.1859
0.00193865	31.2762
0.00194984	31.3667
0.0019611	31.4575
0.00197242	31.5485
0.00198381	31.6398
0.00199526	31.7314
0.00200678	31.8232
0.00201837	31.9153
0.00203002	32.0076
0.00204174	32.1003
0.00205353	32.1932
0.00206538	32.2863
0.0020773	32.3798
0.0020893	32.4735
0.00210136	32.5674
0.00211349	32.6617
0.00212569	32.7562
0.00213796	32.8509
0.0021503	32.946
0.00216272	33.0413
0.0021752	33.1369
0.00218776	33.2328
0.00220039	33.329
0.00221309	33.4254
0.00222587	33.5221
0.00223872	33.6191
0.00225165	33.7164
0.00226464	33.8139
0.00227772	33.9118
0.00229087	34.0099
0.00230409	34.1083
0.00231739	34.2069
0.00233077	34.3059
0.00234423	34.4052
0.00235776	34.5047
0.00237137	34.6045
0.00238506	34.7046
0.00239883	34.805
0.00241268	34.9057
0.00242661	35.0067
0.00244062	35.108
0.00245471	35.2095
0.00246888	35.3114
0.00248313	35.4135
0.00249747	35.516
0.00251189	35.6187
0.00252639	35.7217
0.00254097	35.8251
0.00255564	35.9287
0.0025704	36.0326
0.00258523	36.1368
0.00260016	36.2414
0.00261517	36.3462
0.00263027	36.4513
0.00264545	36.5568
0.00266073	36.6625
0.00267609	36.7685
0.00269153	36.8749
0.00270707	36.9815
0.0027227	37.0885
0.00273842	37.1958
0.00275423	37.3034
0.00277013	37.4112
0.00278612	37.5194
0.00280221	37.628
0.00281838	37.7368
0.00283465	37.8459
0.00285102	37.9554
0.00286748	38.0651
0.00288403	38.1752
0.00290068	38.2856
0.00291743	38.3963
0.00293427	38.5074
0.00295121	38.6187
0.00296825	38.7304
0.00298538	38.8424
0.00300262	38.9547
0.00301995	39.0674
0.00303739	39.1804
0.00305492	39.2937
0.00307256	39.4073
0.0030903	39.5212
0.00310814	39.6355
0.00312608	39.7501
0.00314413	39.8651
0.00316228	39.9804
0.00318053	40.096
0.0031989	40.2119
0.00321736	40.3282
0.00323594	40.4448
0.00325462	40.5617
0.00327341	40.679
0.0032923	40.7966
0.00331131	40.9146
0.00333043	41.0329
0.00334965	41.1515
0.00336899	41.2705
0.00338844	41.3898
0.003408	41.5095
0.00342768	41.6295
0.00344747	41.7499
0.00346737	41.8706
0.00348739	41.9916
0.00350752	42.113
0.00352777	42.2348
0.00354813	42.3569
0.00356862	42.4793
0.00358922	42.6021
0.00360994	42.7253
0.00363078	42.8488
0.00365174	42.9727
0.00367282	43.0969
0.00369403	43.2215
0.00371535	43.3465
0.0037368	43.4718
0.00375837	43.5974
0.00378007	43.7235
0.00380189	43.8499
0.00382384	43.9766
0.00384592	44.1037
0.00386812	44.2312
0.00389045	44.3591
0.00391291	44.4873
0.0039355	44.6159
0.00395822	44.7449
0.00398107	44.8742
0.00400405	45.0039
0.00402717	45.134
0.00405042	45.2645
0.0040738	45.3953
0.00409732	45.5265
0.00412098	45.6581
0.00414477	45.7901
0.00416869	45.9224
0.00419276	46.0552
0.00421697	46.1883
0.00424131	46.3218
0.0042658	46.4557
0.00429042	46.5899
0.00431519	46.7246
0.0043401	46.8596
0.00436516	46.9951
0.00439036	47.1309
0.0044157	47.2671
0.0044412	47.4037
0.00446684	47.5407
0.00449262	47.6781
0.00451856	47.8159
0.00454465	47.9541
0.00457088	48.0927
0.00459727	48.2317
0.00462381	48.3711
0.0046505	48.5108
0.00467735	48.651
0.00470435	48.7916
0.00473151	48.9326
0.00475883	49.0741
0.0047863	49.2159
0.00481393	49.3581
0.00484172	49.5007
0.00486968	49.6438
0.00489779	49.7872
0.00492606	49.9311
0.0049545	50.0754
0.0049831	50.2201
0.00501187	50.3652
0.00504081	50.5108
0.00506991	50.6567
0.00509918	50.9303
0.00512861	51.0771
0.00515822	51.2243
0.005188	51.3719
0.00521795	51.52
0.00524807	51.6685
0.00527837	51.8174
0.00530884	51.9668
0.00533949	52.1166
0.00537032	52.2668
0.00540132	52.4175
0.0054325	52.5685
0.00546387	52.7201
0.00549541	52.872
0.00552713	53.0244
0.00555904	53.1773
0.00559114	53.3305
0.00562341	53.4842
0.00565588	53.6384
0.00568853	53.793
0.00572137	53.9481
0.0057544	54.1036
0.00578762	54.2595
0.00582103	54.4159
0.00585464	54.5728
0.00588844	54.7301
0.00592243	54.8878
0.00595662	55.046
0.00599101	55.2047
0.0060256	55.3638
0.00606038	55.5234
0.00609537	55.6834
0.00613056	55.8439
0.00616595	56.0049
0.00620155	56.1663
0.00623735	56.3282
0.00627336	56.4906
0.00630957	56.6534
0.006346	56.8167
0.00638263	56.9805
0.00641948	57.1447
0.00645654	57.3094
0.00649382	57.4746
0.00653131	57.6403
0.00656901	57.8064
0.00660693	57.973
0.00664508	58.1401
0.00668344	58.3077
0.00672202	58.4758
0.00676083	58.6443
0.00679986	58.8133
0.00683912	58.9829
0.0068786	59.1529
0.00691831	59.3234
0.00695825	59.4944
0.00699842	59.6659
0.00703882	59.8378
0.00707946	60.0103
0.00712033	60.1833
0.00716143	60.3568
0.00720278	60.5307
0.00724436	60.7052
0.00728618	60.8802
0.00732825	61.0557
0.00737055	61.2316
0.0074131	61.4081
0.0074559	61.5851
0.00749894	61.7626
0.00754223	61.9407
0.00758578	62.1192
0.00762957	62.2983
0.00767361	62.4778
0.00771792	62.6579
0.00776247	62.8385
0.00780728	63.0196
0.00785236	63.2013
0.00789769	63.3835
0.00794328	63.5661
0.00798914	63.7494
0.00803526	63.9331
0.00808165	64.1174
0.00812831	64.3022
0.00817523	64.4876
0.00822243	64.6734
0.0082699	64.8598
0.00831764	65.0468
0.00836566	65.2343
0.00841395	65.4223
0.00846253	65.6109
0.00851138	65.8
0.00856052	65.9897
0.00860994	66.1799
0.00865964	66.3706
0.00870964	66.5619
0.00875992	66.7538
0.00881049	66.9462
0.00886135	67.1392
0.00891251	67.3327
0.00896396	67.5268
0.00901571	67.7214
0.00906776	67.9166
0.00912011	68.1124
0.00917276	68.3087
0.00922571	68.5056
0.00927897	68.703
0.00933254	68.9011
0.00938642	69.0997
0.00944061	69.2988
0.00949511	69.4986
0.00954993	69.6989
0.00960506	69.8998
0.00966051	70.1013
0.00971628	70.3033
0.00977237	70.506
0.00982879	70.7092
0.00988553	70.913
0.0099426	71.1174
0.01	71.3224
0.0100577	71.528
0.0101158	71.7341
0.0101742	71.9409
0.0102329	72.1483
0.010292	72.3562
0.0103514	72.5648
0.0104112	72.7739
0.0104713	72.9837
0.0105317	73.1941
0.0105925	73.405
0.0106537	73.6166
0.0107152	73.8288
0.0107771	74.0416
0.0108393	74.255
0.0109018	74.4691
0.0109648	74.6837
0.0110281	74.899
0.0110917	75.1149
0.0111558	75.3314
0.0112202	75.5485
0.011285	75.7663
0.0113501	75.9847
0.0114156	76.2037
0.0114815	76.4233
0.0115478	76.6436
0.0116145	76.8645
0.0116815	77.0861
0.011749	77.3083
0.0118168	77.5311
0.011885	77.7546
0.0119536	77.9787
0.0120226	78.2034
0.0120921	78.4289
0.0121619	78.6549
0.0122321	78.8816
0.0123027	79.109
0.0123737	79.337
0.0124451	79.5657
0.012517	79.795
0.0125893	80.025
0.0126619	80.2557
0.012735	80.487
0.0128086	80.719
0.0128825	80.9517
0.0129569	81.185
0.0130317	81.419
0.0131069	81.6537
0.0131826	81.8891
0.0132587	82.1251
0.0133352	82.3618
0.0134122	82.5992
0.0134896	82.8373
0.0135675	83.0761
0.0136458	83.3155
0.0137246	83.5557
0.0138038	83.7965
0.0138835	84.038
0.0139637	84.2803
0.0140443	84.5232
0.0141254	84.7668
0.0142069	85.0112
0.0142889	85.2562
0.0143714	85.5019
0.0144544	85.7484
0.0145378	85.9955
0.0146218	86.2434
0.0147062	86.492
0.0147911	86.7413
0.0148765	86.9913
0.0149624	87.2421
0.0150487	87.4935
0.0151356	87.7457
0.015223	87.9986
0.0153109	88.2523
0.0153993	88.5066
0.0154882	88.7618
0.0155776	89.0176
0.0156675	89.2742
0.015758	89.5315
0.0158489	89.7896
0.0159404	90.0484
0.0160325	90.3079
0.016125	90.5682
0.0162181	90.8293
0.0163117	91.0911
0.0164059	91.3536
0.0165006	91.617
0.0165959	91.881
0.0166917	92.1459
0.016788	92.4115
0.016885	92.6778
0.0169824	92.945
0.0170805	93.2129
0.0171791	93.4815
0.0172783	93.751
0.017378	94.0212
0.0174783	94.2922
0.0175792	94.564
0.0176807	94.8366
0.0177828	95.1099
0.0178855	95.3841
0.0179887	95.659
0.0180926	95.9347
0.018197	96.2113
0.0183021	96.4886
0.0184077	96.7667
0.018514	97.0456
0.0186209	97.3253
0.0187284	97.6059
0.0188365	97.8872
0.0189452	98.1693
0.0190546	98.4523
0.0191646	98.7361
0.0192752	99.0207
0.0193865	99.3061
0.0194984	99.5923
0.019611	99.8794
0.0197242	100.167
0.0198381	100.456
0.0199526	100.746
0.0200678	101.036
0.0201837	101.327
0.0203002	101.619
0.0204174	101.912
0.0205353	102.206
0.0206538	102.5
0.020773	102.796
0.020893	103.092
0.0210136	103.389
0.0211349	103.687
0.0212569	103.986
0.0213796	104.286
0.021503	104.587
0.0216272	104.888
0.021752	105.19
0.0218776	105.494
0.0220039	105.798
0.0221309	106.103
0.0222587	106.408
0.0223872	106.715
0.0225165	107.023
0.0226464	107.331
0.0227772	107.641
0.0229087	107.951
0.0230409	108.262
0.0231739	108.574
0.0233077	108.887
0.0234423	109.201
0.0235776	109.516
0.0237137	109.831
0.0238506	110.148
0.0239883	110.465
0.0241268	110.784
0.0242661	111.103
0.0244062	111.423
0.0245471	111.744
0.0246888	112.067
0.0248313	112.39
0.0249747	112.713
0.0251189	113.038
0.0252639	113.364
0.0254097	113.691
0.0255564	114.019
0.025704	114.347
0.0258523	114.677
0.0260016	115.007
0.0261517	115.339
0.0263027	115.671
0.0264545	116.005
0.0266073	116.339
0.0267609	116.674
0.0269153	117.011
0.0270707	117.348
0.027227	117.686
0.0273842	118.026
0.0275423	118.366
0.0277013	118.707
0.0278612	119.049
0.0280221	119.392
0.0281838	119.736
0.0283465	120.081
0.0285102	120.428
0.0286748	120.775
0.0288403	121.123
0.0290068	121.472
0.0291743	121.822
0.0293427	122.173
0.0295121	122.525
0.0296825	122.878
0.0298538	123.233
0.0300262	123.588
0.0301995	123.944
0.0303739	124.301
0.0305492	124.66
0.0307256	125.019
0.030903	125.379
0.0310814	125.741
0.0312608	126.103
0.0314413	126.467
0.0316228	126.831
0.0318053	127.197
0.031989	127.563
0.0321736	127.931
0.0323594	128.3
0.0325462	128.67
0.0327341	129.04
0.032923	129.412
0.0331131	129.785
0.0333043	130.16
0.0334965	130.535
0.0336899	130.911
0.0338844	131.288
0.03408	131.667
0.0342768	132.046
0.0344747	132.427
0.0346737	132.809
0.0348739	133.191
0.0350752	133.575
0.0352777	133.96
0.0354813	134.346
0.0356862	134.734
0.0358922	135.122
0.0360994	135.511
0.0363078	135.902
0.0365174	136.294
0.0367282	136.687
0.0369403	137.081
0.0371535	137.476
0.037368	137.872
0.0375837	138.269
0.0378007	138.668
0.0380189	139.068
0.0382384	139.468
0.0384592	139.87
0.0386812	140.274
0.0389045	140.678
0.0391291	141.083
0.039355	141.49
0.0395822	141.898
0.0398107	142.307
0.0400405	142.717
0.0402717	143.128
0.0405042	143.541
0.040738	143.955
0.0409732	144.37
0.0412098	144.786
0.0414477	145.203
0.0416869	145.622
0.0419276	146.041
0.0421697	146.462
0.0424131	146.884
0.042658	147.308
0.0429042	147.732
0.0431519	148.158
0.043401	148.585
0.0436516	149.014
0.0439036	149.443
0.044157	149.874
0.044412	150.306
0.0446684	150.739
0.0449262	151.174
0.0451856	151.609
0.0454465	152.046
0.0457088	152.485
0.0459727	152.924
0.0462381	153.365
0.046505	153.807
0.0467735	154.25
0.0470435	154.695
0.0473151	155.141
0.0475883	155.588
0.047863	156.036
0.0481393	156.486
0.0484172	156.937
0.0486968	157.39
0.0489779	157.843
0.0492606	158.298
0.049545	158.754
0.049831	159.212
0.0501187	159.671
0.0504081	160.131
0.0506991	160.593
0.0509918	161.056
0.0512861	161.52
0.0515822	161.985
0.05188	162.452
0.0521795	162.921
0.0524807	163.39
0.0527837	163.861
0.0530884	164.333
0.0533949	164.807
0.0537032	165.282
0.0540132	165.759
0.054325	166.236
0.0546387	166.715
0.0549541	167.196
0.0552713	167.678
0.0555904	168.161
0.0559114	168.646
0.0562341	169.132
0.0565588	169.62
0.0568853	170.108
0.0572137	170.599
0.057544	171.09
0.0578762	171.584
0.0582103	172.078
0.0585464	172.574
0.0588844	173.072
0.0592243	173.57
0.0595662	174.071
0.0599101	174.573
0.060256	175.076
0.0606038	175.58
0.0609537	176.086
0.0613056	176.594
0.0616595	177.103
0.0620155	177.613
0.0623735	178.125
0.0627336	178.639
0.0630957	179.154
0.06346	179.67
0.0638263	180.188
0.0641948	180.707
0.0645654	181.228
0.0649382	181.751
0.0653131	182.274
0.0656901	182.8
0.0660693	183.327
0.0664508	183.855
0.0668344	184.385
0.0672202	184.917
0.0676083	185.45
0.0679986	185.984
0.0683912	186.52
0.068786	187.058
0.0691831	187.597
0.0695825	188.138
0.0699842	188.68
0.0703882	189.224
0.0707946	189.769
0.0712033	190.316
0.0716143	190.865
0.0720278	191.415
0.0724436	191.967
0.0728618	192.52
0.0732825	193.075
0.0737055	193.631
0.074131	194.19
0.074559	194.749
0.0749894	195.311
0.0754223	195.874
0.0758578	196.438
0.0762957	197.004
0.0767361	197.572
0.0771792	198.142
0.0776247	198.713
0.0780728	199.286
0.0785236	199.86
0.0789769	200.436
0.0794328	201.014
0.0798914	201.593
0.0803526	202.174
0.0808165	202.757
0.0812831	203.341
0.0817523	203.928
0.0822243	204.515
0.082699	205.105
0.0831764	205.696
0.0836566	206.289
0.0841395	206.884
0.0846253	207.48
0.0851138	208.078
0.0856052	208.678
0.0860994	209.279
0.0865964	209.882
0.0870964	210.487
0.0875992	211.094
0.0881049	211.702
0.0886135	212.313
0.0891251	212.925
0.0896396	213.538
0.0901571	214.154
0.0906776	214.771
0.0912011	215.39
0.0917276	216.011
0.0922571	216.634
0.0927897	217.258
0.0933254	217.884
0.0938642	218.512
0.0944061	219.142
0.0949511	219.774
0.0954993	220.407
0.0960506	221.043
0.0966051	221.68
0.0971628	222.319
0.0977237	222.959
0.0982879	223.602
0.0988553	224.247
0.099426	224.893
0.1	225.541
0.100577	226.191
0.101158	226.843
0.101742	227.497
0.102329	228.153
0.10292	228.81
0.103514	229.47
0.104112	230.131
0.104713	230.795
0.105317	231.46
0.105925	232.127
0.106537	232.796
0.107152	233.467
0.107771	234.14
0.108393	234.815
0.109018	235.492
0.109648	236.171
0.110281	236.851
0.110917	237.534
0.111558	238.219
0.112202	238.905
0.11285	239.594
0.113501	240.285
0.114156	240.977
0.114815	241.672
0.115478	242.368
0.116145	243.067
0.116815	243.768
0.11749	244.47
0.118168	245.175
0.11885	245.882
0.119536	246.59
0.120226	247.301
0.120921	248.014
0.121619	248.729
0.122321	249.446
0.123027	250.165
0.123737	250.886
0.124451	251.609
0.12517	252.334
0.125893	253.061
0.126619	253.791
0.12735	254.522
0.128086	255.256
0.128825	255.992
0.129569	256.73
0.130317	257.47
0.131069	258.212
0.131826	258.956
0.132587	259.702
0.133352	260.451
0.134122	261.202
0.134896	261.955
0.135675	262.71
0.136458	263.467
0.137246	264.226
0.138038	264.988
0.138835	265.752
0.139637	266.518
0.140443	267.286
0.141254	268.056
0.142069	268.829
0.142889	269.604
0.143714	270.381
0.144544	271.16
0.145378	271.942
0.146218	272.726
0.147062	273.512
0.147911	274.3
0.148765	275.091
0.149624	275.884
0.150487	276.679
0.151356	277.476
0.15223	278.276
0.153109	279.078
0.153993	279.883
0.154882	280.689
0.155776	281.498
0.156675	282.31
0.15758	283.123
0.158489	283.94
0.159404	284.758
0.160325	285.579
0.16125	286.402
0.162181	287.227
0.163117	288.055
0.164059	288.886
0.165006	289.718
0.165959	290.553
0.166917	291.391
0.16788	292.231
0.16885	293.073
0.169824	293.918
0.170805	294.765
0.171791	295.615
0.172783	296.467
0.17378	297.321
0.174783	298.178
0.175792	299.038
0.176807	299.9
0.177828	300.764
0.178855	301.631
0.179887	302.5
0.180926	303.372
0.18197	304.247
0.183021	305.124
0.184077	306.003
0.18514	306.885
0.186209	307.77
0.187284	308.657
0.188365	309.546
0.189452	310.439
0.190546	311.334
0.191646	312.231
0.192752	313.131
0.193865	314.033
0.194984	314.939
0.19611	315.846
0.197242	316.757
0.198381	317.67
0.199526	318.585
0.200678	319.504
0.201837	320.425
0.203002	321.348
0.204174	322.274
0.205353	323.203
0.206538	324.135
0.20773	325.069
0.20893	326.006
0.210136	326.946
0.211349	327.888
0.212569	328.833
0.213796	329.781
0.21503	330.732
0.216272	331.685
0.21752	332.641
0.218776	333.6
0.220039	334.561
0.221309	335.526
0.222587	336.493
0.223872	337.463
0.225165	338.435
0.226464	339.411
0.227772	340.389
0.229087	341.37
0.230409	342.354
0.231739	343.341
0.233077	344.331
0.234423	345.323
0.235776	346.319
0.237137	347.317
0.238506	348.318
0.239883	349.322
0.241268	350.329
0.242661	351.339
0.244062	352.351
0.245471	353.367
0.246888	354.385
0.248313	355.407
0.249747	356.431
0.251189	357.459
0.252639	358.489
0.254097	359.522
0.255564	360.559
0.25704	361.598
0.258523	362.64
0.260016	363.685
0.261517	364.734
0.263027	365.785
0.264545	366.839
0.266073	367.897
0.267609	368.957
0.269153	370.021
0.270707	371.087
0.27227	372.157
0.273842	373.229
0.275423	374.305
0.277013	375.384
0.278612	376.466
0.280221	377.551
0.281838	378.639
0.283465	379.731
0.285102	380.825
0.286748	381.923
0.288403	383.024
0.290068	384.128
0.291743	385.235
0.293427	386.346
0.295121	387.459
0.296825	388.576
0.298538	389.696
0.300262	390.819
0.301995	391.946
0.303739	393.075
0.305492	394.208
0.307256	395.345
0.30903	396.484
0.310814	397.627
0.312608	398.773
0.314413	399.923
0.316228	401.075
0.318053	402.231
0.31989	403.391
0.321736	404.553
0.323594	405.72
0.325462	406.889
0.327341	408.062
0.32923	409.238
0.331131	410.418
0.333043	411.6
0.334965	412.787
0.336899	413.977
0.338844	415.17
0.3408	416.367
0.342768	417.567
0.344747	418.77
0.346737	419.977
0.348739	421.188
0.350752	422.402
0.352777	423.619
0.354813	424.84
0.356862	426.065
0.358922	427.293
0.360994	428.525
0.363078	429.76
0.365174	430.999
0.367282	432.241
0.369403	433.487
0.371535	434.736
0.37368	435.989
0.375837	437.246
0.378007	438.506
0.380189	439.77
0.382384	441.038
0.384592	442.309
0.386812	443.584
0.389045	444.863
0.391291	446.145
0.39355	447.431
0.395822	448.72
0.398107	450.014
0.400405	451.311
0.402717	452.612
0.405042	453.916
0.40738	455.225
0.409732	456.537
0.412098	457.853
0.414477	459.173
0.416869	460.496
0.419276	461.823
0.421697	463.155
0.424131	464.489
0.42658	465.828
0.429042	467.171
0.431519	468.518
0.43401	469.868
0.436516	471.222
0.439036	472.581
0.44157	473.943
0.44412	475.309
0.446684	476.679
0.449262	478.053
0.451856	479.431
0.454465	480.813
0.457088	482.199
0.459727	483.588
0.462381	484.982
0.46505	486.38
0.467735	487.782
0.470435	489.188
0.473151	490.598
0.475883	492.012
0.47863	493.43
0.481393	494.853
0.484172	496.279
0.486968	497.709
0.489779	499.144
0.492606	500.583
0.49545	502.026
0.49831	503.473
0.501187	504.924
0.504081	506.379
0.506991	507.839
0.509918	509.303
0.512861	510.771
0.515822	512.243
0.5188	513.719
0.521795	515.2
0.524807	516.685
0.527837	518.174
0.530884	519.668
0.533949	521.166
0.537032	522.668
0.540132	524.175
0.54325	525.685
0.546387	527.201
0.549541	528.72
0.552713	530.244
0.555904	531.773
0.559114	533.305
0.562341	534.842
0.565588	536.384
0.568853	537.93
0.572137	539.481
0.57544	541.036
0.578762	542.595
0.582103	544.159
0.585464	545.728
0.588844	547.301
0.592243	548.878
0.595662	550.46
0.599101	552.047
0.60256	553.638
0.606038	555.234
0.609537	556.834
0.613056	558.439
