Stopping power dEdx from Ionisation for alpha Z = 2 in Water, process name: ionIoni
E [MeV]	dEdx [MeV/mm]
0.001	11.7661
0.00100577	11.8007
0.00101158	11.8354
0.00101742	11.8703
0.00102329	11.9052
0.0010292	11.9402
0.00103514	11.9753
0.00104112	12.0105
0.00104713	12.0459
0.00105317	12.0813
0.00105925	12.1169
0.00106537	12.1525
0.00107152	12.1883
0.00107771	12.2241
0.00108393	12.2601
0.00109018	12.2962
0.00109648	12.3324
0.00110281	12.3687
0.00110917	12.4051
0.00111558	12.4416
0.00112202	12.4782
0.0011285	12.515
0.00113501	12.5518
0.00114156	12.5888
0.00114815	12.6258
0.00115478	12.663
0.00116145	12.7003
0.00116815	12.7377
0.0011749	12.7752
0.00118168	12.8128
0.0011885	12.8506
0.00119536	12.8884
0.00120226	12.9264
0.00120921	12.9645
0.00121619	13.0026
0.00122321	13.041
0.00123027	13.0794
0.00123737	13.1179
0.00124451	13.1566
0.0012517	13.1953
0.00125893	13.2342
0.00126619	13.2732
0.0012735	13.3123
0.00128086	13.3516
0.00128825	13.3909
0.00129569	13.4304
0.00130317	13.47
0.00131069	13.5097
0.00131826	13.5495
0.00132587	13.5895
0.00133352	13.6295
0.00134122	13.6697
0.00134896	13.71
0.00135675	13.7505
0.00136458	13.791
0.00137246	13.8317
0.00138038	13.8725
0.00138835	13.9134
0.00139637	13.9544
0.00140443	13.9956
0.00141254	14.0369
0.00142069	14.0783
0.00142889	14.1198
0.00143714	14.1615
0.00144544	14.2033
0.00145378	14.2452
0.00146218	14.2872
0.00147062	14.3294
0.00147911	14.3717
0.00148765	14.4141
0.00149624	14.4566
0.00150487	14.4993
0.00151356	14.5421
0.0015223	14.585
0.00153109	14.6281
0.00153993	14.6713
0.00154882	14.7146
0.00155776	14.7581
0.00156675	14.8016
0.0015758	14.8453
0.00158489	14.8892
0.00159404	14.9332
0.00160325	14.9773
0.0016125	15.0215
0.00162181	15.0659
0.00163117	15.1104
0.00164059	15.155
0.00165006	15.1998
0.00165959	15.2447
0.00166917	15.2897
0.0016788	15.3349
0.0016885	15.3802
0.00169824	15.4257
0.00170805	15.4713
0.00171791	15.517
0.00172783	15.5629
0.0017378	15.6089
0.00174783	15.655
0.00175792	15.7013
0.00176807	15.7477
0.00177828	15.7943
0.00178855	15.8409
0.00179887	15.8878
0.00180926	15.9348
0.0018197	15.9819
0.00183021	16.0291
0.00184077	16.0766
0.0018514	16.1241
0.00186209	16.1718
0.00187284	16.2196
0.00188365	16.2676
0.00189452	16.3157
0.00190546	16.364
0.00191646	16.4124
0.00192752	16.461
0.00193865	16.5097
0.00194984	16.5585
0.0019611	16.6075
0.00197242	16.6567
0.00198381	16.706
0.00199526	16.7554
0.00200678	16.805
0.00201837	16.8547
0.00203002	16.9046
0.00204174	16.9547
0.00205353	17.0049
0.00206538	17.0552
0.0020773	17.1057
0.0020893	17.1564
0.00210136	17.2072
0.00211349	17.2581
0.00212569	17.3092
0.00213796	17.3605
0.0021503	17.4119
0.00216272	17.4635
0.0021752	17.5152
0.00218776	17.5671
0.00220039	17.6191
0.00221309	17.6713
0.00222587	17.7237
0.00223872	17.7762
0.00225165	17.8289
0.00226464	17.8817
0.00227772	17.9347
0.00229087	17.9879
0.00230409	18.0412
0.00231739	18.0946
0.00233077	18.1483
0.00234423	18.2021
0.00235776	18.256
0.00237137	18.3102
0.00238506	18.3644
0.00239883	18.4189
0.00241268	18.4735
0.00242661	18.5283
0.00244062	18.5832
0.00245471	18.6383
0.00246888	18.6936
0.00248313	18.7491
0.00249747	18.8047
0.00251189	18.8604
0.00252639	18.9164
0.00254097	18.9725
0.00255564	19.0288
0.0025704	19.0853
0.00258523	19.1419
0.00260016	19.1987
0.00261517	19.2556
0.00263027	19.3128
0.00264545	19.3701
0.00266073	19.4276
0.00267609	19.4853
0.00269153	19.5431
0.00270707	19.6011
0.0027227	19.6593
0.00273842	19.7177
0.00275423	19.7762
0.00277013	19.8349
0.00278612	19.8938
0.00280221	19.9529
0.00281838	20.0121
0.00283465	20.0716
0.00285102	20.1312
0.00286748	20.191
0.00288403	20.2509
0.00290068	20.3111
0.00291743	20.3714
0.00293427	20.4319
0.00295121	20.4926
0.00296825	20.5535
0.00298538	20.6146
0.00300262	20.6759
0.00301995	20.7373
0.00303739	20.7989
0.00305492	20.8607
0.00307256	20.9227
0.0030903	20.9849
0.00310814	21.0473
0.00312608	21.1099
0.00314413	21.1726
0.00316228	21.2356
0.00318053	21.2987
0.0031989	21.362
0.00321736	21.4255
0.00323594	21.4893
0.00325462	21.5532
0.00327341	21.6173
0.0032923	21.6815
0.00331131	21.746
0.00333043	21.8107
0.00334965	21.8756
0.00336899	21.9407
0.00338844	22.0059
0.003408	22.0714
0.00342768	22.1371
0.00344747	22.203
0.00346737	22.269
0.00348739	22.3353
0.00350752	22.4018
0.00352777	22.4684
0.00354813	22.5353
0.00356862	22.6024
0.00358922	22.6697
0.00360994	22.7371
0.00363078	22.8048
0.00365174	22.8727
0.00367282	22.9408
0.00369403	23.0091
0.00371535	23.0776
0.0037368	23.1464
0.00375837	23.2153
0.00378007	23.2844
0.00380189	23.3538
0.00382384	23.4233
0.00384592	23.4931
0.00386812	23.5631
0.00389045	23.6333
0.00391291	23.7037
0.0039355	23.7743
0.00395822	23.8452
0.00398107	23.9162
0.00400405	23.9816
0.00402717	24.0316
0.00405042	24.1034
0.0040738	24.1754
0.00409732	24.2476
0.00412098	24.32
0.00414477	24.3926
0.00416869	24.4655
0.00419276	24.5386
0.00421697	24.6119
0.00424131	24.6854
0.0042658	24.7592
0.00429042	24.8332
0.00431519	24.9073
0.0043401	24.9818
0.00436516	25.0564
0.00439036	25.1313
0.0044157	25.2064
0.0044412	25.2817
0.00446684	25.3573
0.00449262	25.433
0.00451856	25.5091
0.00454465	25.5853
0.00457088	25.6618
0.00459727	25.7385
0.00462381	25.8154
0.0046505	25.8926
0.00467735	25.97
0.00470435	26.0476
0.00473151	26.1255
0.00475883	26.2036
0.0047863	26.2819
0.00481393	26.3605
0.00484172	26.4393
0.00486968	26.5184
0.00489779	26.5977
0.00492606	26.6772
0.0049545	26.757
0.0049831	26.837
0.00501187	26.9173
0.00504081	26.9978
0.00506991	27.0785
0.00509918	27.1595
0.00512861	27.2408
0.00515822	27.3223
0.005188	27.404
0.00521795	27.486
0.00524807	27.5682
0.00527837	27.6507
0.00530884	27.7335
0.00533949	27.8164
0.00537032	27.8997
0.00540132	27.9832
0.0054325	28.0669
0.00546387	28.1509
0.00549541	28.2352
0.00552713	28.3197
0.00555904	28.4044
0.00559114	28.4895
0.00562341	28.5748
0.00565588	28.6603
0.00568853	28.7461
0.00572137	28.8322
0.0057544	28.9185
0.00578762	29.0051
0.00582103	29.0919
0.00585464	29.1791
0.00588844	29.2664
0.00592243	29.3541
0.00595662	29.442
0.00599101	29.5302
0.0060256	29.6186
0.00606038	29.7074
0.00609537	29.7963
0.00613056	29.8856
0.00616595	29.9751
0.00620155	30.0649
0.00623735	30.155
0.00627336	30.2454
0.00630957	30.336
0.006346	30.4269
0.00638263	30.5181
0.00641948	30.6096
0.00645654	30.7013
0.00649382	30.7933
0.00653131	30.8856
0.00656901	30.9782
0.00660693	31.0711
0.00664508	31.1642
0.00668344	31.2577
0.00672202	31.3514
0.00676083	31.4454
0.00679986	31.5397
0.00683912	31.6342
0.0068786	31.7291
0.00691831	31.8243
0.00695825	31.9197
0.00699842	32.0154
0.00703882	32.1115
0.00707946	32.2078
0.00712033	32.3044
0.00716143	32.4013
0.00720278	32.4985
0.00724436	32.596
0.00728618	32.6938
0.00732825	32.7919
0.00737055	32.8903
0.0074131	32.989
0.0074559	33.088
0.00749894	33.1873
0.00754223	33.2869
0.00758578	33.3868
0.00762957	33.4871
0.00767361	33.5876
0.00771792	33.6884
0.00776247	33.7896
0.00780728	33.891
0.00785236	33.9928
0.00789769	34.0948
0.00794328	34.1972
0.00798914	34.2999
0.00803526	34.4029
0.00808165	34.5062
0.00812831	34.6099
0.00817523	34.7138
0.00822243	34.8181
0.0082699	34.9227
0.00831764	35.0276
0.00836566	35.1328
0.00841395	35.2384
0.00846253	35.3442
0.00851138	35.4504
0.00856052	35.557
0.00860994	35.6638
0.00865964	35.771
0.00870964	35.8785
0.00875992	35.9863
0.00881049	36.0945
0.00886135	36.203
0.00891251	36.3118
0.00896396	36.421
0.00901571	36.5305
0.00906776	36.6403
0.00912011	36.7505
0.00917276	36.861
0.00922571	36.9718
0.00927897	37.083
0.00933254	37.1945
0.00938642	37.3064
0.00944061	37.4186
0.00949511	37.5311
0.00954993	37.644
0.00960506	37.7572
0.00966051	37.8708
0.00971628	37.9848
0.00977237	38.099
0.00982879	38.2137
0.00988553	38.3286
0.0099426	38.444
0.01	38.5597
0.0100577	38.6757
0.0101158	38.7921
0.0101742	38.9089
0.0102329	39.026
0.010292	39.1434
0.0103514	39.2613
0.0104112	39.3794
0.0104713	39.498
0.0105317	39.6169
0.0105925	39.7362
0.0106537	39.8558
0.0107152	39.9758
0.0107771	40.0962
0.0108393	40.217
0.0109018	40.3381
0.0109648	40.4596
0.0110281	40.5814
0.0110917	40.7037
0.0111558	40.8263
0.0112202	40.9493
0.011285	41.0726
0.0113501	41.1964
0.0114156	41.3205
0.0114815	41.445
0.0115478	41.5698
0.0116145	41.6951
0.0116815	41.8208
0.011749	41.9468
0.0118168	42.0732
0.011885	42.2
0.0119536	42.3272
0.0120226	42.4548
0.0120921	42.5828
0.0121619	42.7111
0.0122321	42.8399
0.0123027	42.969
0.0123737	43.0986
0.0124451	43.2285
0.012517	43.3589
0.0125893	43.4896
0.0126619	43.6208
0.012735	43.7523
0.0128086	43.8843
0.0128825	44.0166
0.0129569	44.1494
0.0130317	44.2825
0.0131069	44.4161
0.0131826	44.5501
0.0132587	44.6845
0.0133352	44.8193
0.0134122	44.9545
0.0134896	45.0902
0.0135675	45.2262
0.0136458	45.3627
0.0137246	45.4996
0.0138038	45.6369
0.0138835	45.7746
0.0139637	45.9128
0.0140443	46.0513
0.0141254	46.1903
0.0142069	46.3298
0.0142889	46.4696
0.0143714	46.6099
0.0144544	46.7506
0.0145378	46.8917
0.0146218	47.0333
0.0147062	47.1753
0.0147911	47.3178
0.0148765	47.4607
0.0149624	47.604
0.0150487	47.7477
0.0151356	47.8919
0.015223	48.0366
0.0153109	48.1817
0.0153993	48.3272
0.0154882	48.4732
0.0155776	48.6196
0.0156675	48.7665
0.015758	48.9138
0.0158489	49.0616
0.0159404	49.2098
0.0160325	49.3585
0.016125	49.5076
0.0162181	49.6572
0.0163117	49.8073
0.0164059	49.9578
0.0165006	50.1087
0.0165959	50.2602
0.0166917	50.4121
0.016788	50.5644
0.016885	50.7173
0.0169824	50.8706
0.0170805	51.0244
0.0171791	51.1786
0.0172783	51.3333
0.017378	51.4885
0.0174783	51.6442
0.0175792	51.8003
0.0176807	51.9569
0.0177828	52.114
0.0178855	52.2716
0.0179887	52.4297
0.0180926	52.5882
0.018197	52.7473
0.0183021	52.9068
0.0184077	53.0668
0.018514	53.2273
0.0186209	53.3883
0.0187284	53.5498
0.0188365	53.7118
0.0189452	53.8742
0.0190546	54.0372
0.0191646	54.2007
0.0192752	54.3647
0.0193865	54.5291
0.0194984	54.6941
0.019611	54.8596
0.0197242	55.0256
0.0198381	55.1921
0.0199526	55.3591
0.0200678	55.5266
0.0201837	55.6947
0.0203002	55.8632
0.0204174	56.0323
0.0205353	56.2019
0.0206538	56.372
0.020773	56.5426
0.020893	56.7137
0.0210136	56.8854
0.0211349	57.0576
0.0212569	57.2303
0.0213796	57.4036
0.021503	57.5774
0.0216272	57.7517
0.021752	57.9265
0.0218776	58.1019
0.0220039	58.2778
0.0221309	58.4543
0.0222587	58.6312
0.0223872	58.8088
0.0225165	58.9869
0.0226464	59.1655
0.0227772	59.3446
0.0229087	59.5244
0.0230409	59.7046
0.0231739	59.8854
0.0233077	60.0668
0.0234423	60.2487
0.0235776	60.4312
0.0237137	60.6143
0.0238506	60.7978
0.0239883	60.982
0.0241268	61.1667
0.0242661	61.352
0.0244062	61.5379
0.0245471	61.7243
0.0246888	61.9113
0.0248313	62.0988
0.0249747	62.2869
0.0251189	62.4756
0.0252639	62.6649
0.0254097	62.8548
0.0255564	63.0452
0.025704	63.2362
0.0258523	63.4278
0.0260016	63.62
0.0261517	63.8128
0.0263027	64.0061
0.0264545	64.2001
0.0266073	64.3946
0.0267609	64.5898
0.0269153	64.7855
0.0270707	64.9818
0.027227	65.1787
0.0273842	65.3762
0.0275423	65.5744
0.0277013	65.7731
0.0278612	65.9724
0.0280221	66.1724
0.0281838	66.3729
0.0283465	66.5741
0.0285102	66.7758
0.0286748	66.9782
0.0288403	67.1812
0.0290068	67.3848
0.0291743	67.5891
0.0293427	67.7939
0.0295121	67.9994
0.0296825	68.2055
0.0298538	68.4122
0.0300262	68.6196
0.0301995	68.8276
0.0303739	69.0362
0.0305492	69.2455
0.0307256	69.4553
0.030903	69.6659
0.0310814	69.877
0.0312608	70.0888
0.0314413	70.3013
0.0316228	70.5144
0.0318053	70.7281
0.031989	70.9425
0.0321736	71.1576
0.0323594	71.3732
0.0325462	71.5896
0.0327341	71.8066
0.032923	72.0242
0.0331131	72.2426
0.0333043	72.4615
0.0334965	72.6812
0.0336899	72.9015
0.0338844	73.1224
0.03408	73.3441
0.0342768	73.5664
0.0344747	73.7894
0.0346737	74.013
0.0348739	74.2374
0.0350752	74.4624
0.0352777	74.6881
0.0354813	74.9144
0.0356862	75.1415
0.0358922	75.3692
0.0360994	75.5976
0.0363078	75.8268
0.0365174	76.0566
0.0367282	76.2871
0.0369403	76.5182
0.0371535	76.7501
0.037368	76.9827
0.0375837	77.216
0.0378007	77.45
0.0380189	77.6847
0.0382384	77.9201
0.0384592	78.1562
0.0386812	78.393
0.0389045	78.6305
0.0391291	78.8688
0.039355	79.1077
0.0395822	79.3474
0.0398107	79.5878
0.0400405	79.8289
0.0402717	80.0708
0.0405042	80.3133
0.040738	80.5566
0.0409732	80.8006
0.0412098	81.0454
0.0414477	81.2909
0.0416869	81.5371
0.0419276	81.784
0.0421697	82.0317
0.0424131	82.2802
0.042658	82.5293
0.0429042	82.7793
0.0431519	83.0299
0.043401	83.2813
0.0436516	83.5335
0.0439036	83.7864
0.044157	84.0401
0.044412	84.2945
0.0446684	84.5497
0.0449262	84.8056
0.0451856	85.0623
0.0454465	85.3198
0.0457088	85.578
0.0459727	85.837
0.0462381	86.0968
0.046505	86.3573
0.0467735	86.6186
0.0470435	86.8807
0.0473151	87.1436
0.0475883	87.4072
0.047863	87.6716
0.0481393	87.9368
0.0484172	88.2028
0.0486968	88.4696
0.0489779	88.7371
0.0492606	89.0055
0.049545	89.2746
0.049831	89.5445
0.0501187	89.8153
0.0504081	90.0868
0.0506991	90.3591
0.0509918	90.6322
0.0512861	90.9062
0.0515822	91.1809
0.05188	91.4565
0.0521795	91.7328
0.0524807	92.01
0.0527837	92.2879
0.0530884	92.5667
0.0533949	92.8463
0.0537032	93.1267
0.0540132	93.408
0.054325	93.69
0.0546387	93.9729
0.0549541	94.2566
0.0552713	94.5412
0.0555904	94.8265
0.0559114	95.1127
0.0562341	95.3998
0.0565588	95.6876
0.0568853	95.9763
0.0572137	96.2659
0.057544	96.5562
0.0578762	96.8474
0.0582103	97.1395
0.0585464	97.4324
0.0588844	97.7262
0.0592243	98.0208
0.0595662	98.3162
0.0599101	98.6125
0.060256	98.9097
0.0606038	99.2077
0.0609537	99.5065
0.0613056	99.8063
0.0616595	100.107
0.0620155	100.408
0.0623735	100.711
0.0627336	101.014
0.0630957	101.318
0.06346	101.623
0.0638263	101.929
0.0641948	102.235
0.0645654	102.543
0.0649382	102.851
0.0653131	103.16
0.0656901	103.471
0.0660693	103.782
0.0664508	104.093
0.0668344	104.406
0.0672202	104.72
0.0676083	105.035
0.0679986	105.35
0.0683912	105.666
0.068786	105.984
0.0691831	106.302
0.0695825	106.621
0.0699842	106.941
0.0703882	107.262
0.0707946	107.583
0.0712033	107.906
0.0716143	108.229
0.0720278	108.554
0.0724436	108.879
0.0728618	109.205
0.0732825	109.532
0.0737055	109.86
0.074131	110.189
0.074559	110.519
0.0749894	110.85
0.0754223	111.182
0.0758578	111.514
0.0762957	111.848
0.0767361	112.182
0.0771792	112.518
0.0776247	112.854
0.0780728	113.191
0.0785236	113.529
0.0789769	113.868
0.0794328	114.208
0.0798914	114.549
0.0803526	114.891
0.0808165	115.233
0.0812831	115.577
0.0817523	115.922
0.0822243	116.267
0.082699	116.614
0.0831764	116.961
0.0836566	117.309
0.0841395	117.658
0.0846253	118.009
0.0851138	118.36
0.0856052	118.712
0.0860994	119.065
0.0865964	119.419
0.0870964	119.773
0.0875992	120.129
0.0881049	120.486
0.0886135	120.844
0.0891251	121.202
0.0896396	121.562
0.0901571	121.922
0.0906776	122.284
0.0912011	122.646
0.0917276	123.009
0.0922571	123.373
0.0927897	123.739
0.0933254	124.105
0.0938642	124.472
0.0944061	124.84
0.0949511	125.209
0.0954993	125.579
0.0960506	125.949
0.0966051	126.321
0.0971628	126.694
0.0977237	127.067
0.0982879	127.442
0.0988553	127.818
0.099426	128.194
0.1	128.572
0.100577	128.95
0.101158	129.329
0.101742	129.709
0.102329	130.091
0.10292	130.473
0.103514	130.856
0.104112	131.24
0.104713	131.625
0.105317	132.011
0.105925	132.398
0.106537	132.785
0.107152	133.174
0.107771	133.564
0.108393	133.954
0.109018	134.346
0.109648	134.738
0.110281	135.132
0.110917	135.526
0.111558	135.921
0.112202	136.317
0.11285	136.715
0.113501	137.113
0.114156	137.512
0.114815	137.911
0.115478	138.312
0.116145	138.714
0.116815	139.117
0.11749	139.52
0.118168	139.925
0.11885	140.33
0.119536	140.736
0.120226	141.144
0.120921	141.552
0.121619	141.961
0.122321	142.371
0.123027	142.782
0.123737	143.193
0.124451	143.606
0.12517	144.02
0.125893	144.434
0.126619	144.85
0.12735	145.266
0.128086	145.683
0.128825	146.101
0.129569	146.52
0.130317	146.94
0.131069	147.36
0.131826	147.782
0.132587	148.204
0.133352	148.627
0.134122	149.052
0.134896	149.477
0.135675	149.902
0.136458	150.329
0.137246	150.757
0.138038	151.185
0.138835	151.614
0.139637	152.044
0.140443	152.475
0.141254	152.907
0.142069	153.34
0.142889	153.773
0.143714	154.207
0.144544	154.642
0.145378	155.078
0.146218	155.515
0.147062	155.952
0.147911	156.39
0.148765	156.829
0.149624	157.269
0.150487	157.71
0.151356	158.151
0.15223	158.593
0.153109	159.036
0.153993	159.48
0.154882	159.924
0.155776	160.369
0.156675	160.815
0.15758	161.262
0.158489	161.709
0.159404	162.157
0.160325	162.606
0.16125	163.055
0.162181	163.506
0.163117	163.956
0.164059	164.408
0.165006	164.86
0.165959	165.313
0.166917	165.767
0.16788	166.221
0.16885	166.676
0.169824	167.132
0.170805	167.588
0.171791	168.045
0.172783	168.502
0.17378	168.96
0.174783	169.419
0.175792	169.878
0.176807	170.338
0.177828	170.798
0.178855	171.259
0.179887	171.721
0.180926	172.183
0.18197	172.646
0.183021	173.109
0.184077	173.573
0.18514	174.037
0.186209	174.501
0.187284	174.967
0.188365	175.432
0.189452	175.899
0.190546	176.365
0.191646	176.832
0.192752	177.3
0.193865	177.768
0.194984	178.236
0.19611	178.705
0.197242	179.174
0.198381	179.644
0.199526	180.114
0.200678	180.584
0.201837	181.054
0.203002	181.525
0.204174	181.997
0.205353	182.468
0.206538	182.94
0.20773	183.412
0.20893	183.885
0.210136	184.357
0.211349	184.83
0.212569	185.303
0.213796	185.777
0.21503	186.25
0.216272	186.724
0.21752	187.198
0.218776	187.672
0.220039	188.146
0.221309	188.621
0.222587	189.095
0.223872	189.57
0.225165	190.044
0.226464	190.519
0.227772	190.994
0.229087	191.468
0.230409	191.943
0.231739	192.418
0.233077	192.893
0.234423	193.367
0.235776	193.842
0.237137	194.316
0.238506	194.791
0.239883	195.265
0.241268	195.739
0.242661	196.213
0.244062	196.687
0.245471	197.161
0.246888	197.634
0.248313	198.108
0.249747	198.581
0.251189	199.054
0.252639	199.526
0.254097	199.998
0.255564	200.47
0.25704	200.941
0.258523	201.413
0.260016	201.883
0.261517	202.354
0.263027	202.824
0.264545	203.293
0.266073	203.762
0.267609	204.23
0.269153	204.698
0.270707	205.166
0.27227	205.632
0.273842	206.099
0.275423	206.564
0.277013	207.029
0.278612	207.494
0.280221	207.957
0.281838	208.42
0.283465	208.882
0.285102	209.344
0.286748	209.804
0.288403	210.264
0.290068	210.723
0.291743	211.181
0.293427	211.638
0.295121	212.095
0.296825	212.55
0.298538	213.004
0.300262	213.458
0.301995	213.91
0.303739	214.361
0.305492	214.812
0.307256	215.261
0.30903	215.709
0.310814	216.155
0.312608	216.601
0.314413	217.045
0.316228	217.489
0.318053	217.93
0.31989	218.371
0.321736	218.81
0.323594	219.248
0.325462	219.685
0.327341	220.12
0.32923	220.553
0.331131	220.985
0.333043	221.416
0.334965	221.845
0.336899	222.272
0.338844	222.698
0.3408	223.122
0.342768	223.545
0.344747	223.965
0.346737	224.385
0.348739	224.802
0.350752	225.217
0.352777	225.631
0.354813	226.043
0.356862	226.452
0.358922	226.86
0.360994	227.266
0.363078	227.67
0.365174	228.072
0.367282	228.472
0.369403	228.869
0.371535	229.265
0.37368	229.658
0.375837	230.049
0.378007	230.438
0.380189	230.825
0.382384	231.209
0.384592	231.591
0.386812	231.971
0.389045	232.348
0.391291	232.723
0.39355	233.095
0.395822	233.464
0.398107	233.831
0.400405	234.196
0.402717	234.558
0.405042	234.917
0.40738	235.273
0.409732	235.627
0.412098	235.978
0.414477	236.326
0.416869	236.672
0.419276	237.014
0.421697	237.353
0.424131	237.69
0.42658	238.023
0.429042	238.354
0.431519	238.681
0.43401	239.005
0.436516	239.326
0.439036	239.644
0.44157	239.959
0.44412	240.271
0.446684	240.579
0.449262	240.884
0.451856	241.185
0.454465	241.483
0.457088	241.778
0.459727	242.069
0.462381	242.356
0.46505	242.64
0.467735	242.921
0.470435	243.198
0.473151	243.471
0.475883	243.74
0.47863	244.006
0.481393	244.268
0.484172	244.526
0.486968	244.781
0.489779	245.031
0.492606	245.278
0.49545	245.52
0.49831	245.759
0.501187	245.994
0.504081	246.224
0.506991	246.451
0.509918	246.673
0.512861	246.891
0.515822	247.105
0.5188	247.315
0.521795	247.521
0.524807	247.722
0.527837	247.919
0.530884	248.112
0.533949	248.3
0.537032	248.484
0.540132	248.663
0.54325	248.838
0.546387	249.008
0.549541	249.174
0.552713	249.335
0.555904	249.492
0.559114	249.644
0.562341	249.791
0.565588	249.934
0.568853	250.072
0.572137	250.205
0.57544	250.333
0.578762	250.456
0.582103	250.575
0.585464	250.689
0.588844	250.798
0.592243	250.902
0.595662	251.001
0.599101	251.095
0.60256	251.184
0.606038	251.268
0.609537	251.347
