Stopping power dEdx from Ionisation for Ar40[0.0] Z = 18 in G4_TISSUE_SOFT_ICRP, process name: ionIoni
E [MeV]	dEdx [MeV/mm]
0.001	60.4723
0.00100577	60.6466
0.00101158	60.8214
0.00101742	60.9967
0.00102329	61.1725
0.0010292	61.3488
0.00103514	61.5256
0.00104112	61.703
0.00104713	61.8808
0.00105317	62.0592
0.00105925	62.2381
0.00106537	62.4175
0.00107152	62.5974
0.00107771	62.7778
0.00108393	62.9588
0.00109018	63.1402
0.00109648	63.3222
0.00110281	63.5047
0.00110917	63.6878
0.00111558	63.8714
0.00112202	64.0555
0.0011285	64.2401
0.00113501	64.4253
0.00114156	64.611
0.00114815	64.7972
0.00115478	64.984
0.00116145	65.1713
0.00116815	65.3591
0.0011749	65.5475
0.00118168	65.7364
0.0011885	65.9259
0.00119536	66.1159
0.00120226	66.3065
0.00120921	66.4976
0.00121619	66.6893
0.00122321	66.8815
0.00123027	67.0743
0.00123737	67.2676
0.00124451	67.4615
0.0012517	67.656
0.00125893	67.851
0.00126619	68.0466
0.0012735	68.2427
0.00128086	68.4394
0.00128825	68.6367
0.00129569	68.8345
0.00130317	69.0329
0.00131069	69.2319
0.00131826	69.4314
0.00132587	69.6316
0.00133352	69.8323
0.00134122	70.0336
0.00134896	70.2354
0.00135675	70.4379
0.00136458	70.6409
0.00137246	70.8445
0.00138038	71.0487
0.00138835	71.2535
0.00139637	71.4589
0.00140443	71.6648
0.00141254	71.8714
0.00142069	72.0786
0.00142889	72.2863
0.00143714	72.4947
0.00144544	72.7036
0.00145378	72.9132
0.00146218	73.1234
0.00147062	73.3341
0.00147911	73.5455
0.00148765	73.7575
0.00149624	73.9701
0.00150487	74.1833
0.00151356	74.3971
0.0015223	74.6116
0.00153109	74.8266
0.00153993	75.0423
0.00154882	75.2586
0.00155776	75.4755
0.00156675	75.6931
0.0015758	75.9113
0.00158489	76.1301
0.00159404	76.3495
0.00160325	76.5696
0.0016125	76.7903
0.00162181	77.0116
0.00163117	77.2336
0.00164059	77.4562
0.00165006	77.6795
0.00165959	77.9034
0.00166917	78.1279
0.0016788	78.3531
0.0016885	78.5789
0.00169824	78.8054
0.00170805	79.0326
0.00171791	79.2604
0.00172783	79.4888
0.0017378	79.718
0.00174783	79.9477
0.00175792	80.1782
0.00176807	80.4093
0.00177828	80.6411
0.00178855	80.8735
0.00179887	81.1066
0.00180926	81.3404
0.0018197	81.5748
0.00183021	81.81
0.00184077	82.0458
0.0018514	82.2823
0.00186209	82.5194
0.00187284	82.7573
0.00188365	82.9958
0.00189452	83.235
0.00190546	83.475
0.00191646	83.7156
0.00192752	83.9569
0.00193865	84.1989
0.00194984	84.4415
0.0019611	84.6849
0.00197242	84.929
0.00198381	85.1738
0.00199526	85.4193
0.00200678	85.6655
0.00201837	85.9125
0.00203002	86.1601
0.00204174	86.4084
0.00205353	86.6575
0.00206538	86.9073
0.0020773	87.1578
0.0020893	87.409
0.00210136	87.661
0.00211349	87.9136
0.00212569	88.167
0.00213796	88.4212
0.0021503	88.676
0.00216272	88.9316
0.0021752	89.188
0.00218776	89.445
0.00220039	89.7028
0.00221309	89.9614
0.00222587	90.2207
0.00223872	90.4807
0.00225165	90.7415
0.00226464	91.0031
0.00227772	91.2654
0.00229087	91.5285
0.00230409	91.7923
0.00231739	92.0569
0.00233077	92.3222
0.00234423	92.5883
0.00235776	92.8552
0.00237137	93.1228
0.00238506	93.3913
0.00239883	93.6604
0.00241268	93.9304
0.00242661	94.2011
0.00244062	94.4727
0.00245471	94.745
0.00246888	95.0181
0.00248313	95.2919
0.00249747	95.5666
0.00251189	95.8421
0.00252639	96.1183
0.00254097	96.3954
0.00255564	96.6732
0.0025704	96.9519
0.00258523	97.2313
0.00260016	97.5116
0.00261517	97.7926
0.00263027	98.0745
0.00264545	98.3572
0.00266073	98.6407
0.00267609	98.925
0.00269153	99.2102
0.00270707	99.4961
0.0027227	99.7829
0.00273842	100.071
0.00275423	100.359
0.00277013	100.648
0.00278612	100.938
0.00280221	101.229
0.00281838	101.521
0.00283465	101.814
0.00285102	102.107
0.00286748	102.401
0.00288403	102.697
0.00290068	102.993
0.00291743	103.29
0.00293427	103.587
0.00295121	103.886
0.00296825	104.185
0.00298538	104.486
0.00300262	104.787
0.00301995	105.089
0.00303739	105.392
0.00305492	105.695
0.00307256	106
0.0030903	106.306
0.00310814	106.612
0.00312608	106.919
0.00314413	107.228
0.00316228	107.537
0.00318053	107.847
0.0031989	108.157
0.00321736	108.469
0.00323594	108.782
0.00325462	109.095
0.00327341	109.41
0.0032923	109.725
0.00331131	110.041
0.00333043	110.359
0.00334965	110.677
0.00336899	110.996
0.00338844	111.316
0.003408	111.636
0.00342768	111.958
0.00344747	112.281
0.00346737	112.605
0.00348739	112.929
0.00350752	113.255
0.00352777	113.581
0.00354813	113.909
0.00356862	114.237
0.00358922	114.566
0.00360994	114.896
0.00363078	115.228
0.00365174	115.56
0.00367282	115.893
0.00369403	116.227
0.00371535	116.562
0.0037368	116.898
0.00375837	117.235
0.00378007	117.573
0.00380189	117.912
0.00382384	118.251
0.00384592	118.592
0.00386812	118.934
0.00389045	119.277
0.00391291	119.621
0.0039355	119.965
0.00395822	120.311
0.00398107	120.658
0.00400405	121.006
0.00402717	121.355
0.00405042	121.704
0.0040738	122.055
0.00409732	122.407
0.00412098	122.76
0.00414477	123.114
0.00416869	123.469
0.00419276	123.824
0.00421697	124.181
0.00424131	124.539
0.0042658	124.898
0.00429042	125.258
0.00431519	125.619
0.0043401	125.981
0.00436516	126.344
0.00439036	126.709
0.0044157	127.074
0.0044412	127.44
0.00446684	127.807
0.00449262	128.176
0.00451856	128.545
0.00454465	128.916
0.00457088	129.287
0.00459727	129.66
0.00462381	130.034
0.0046505	130.409
0.00467735	130.784
0.00470435	131.161
0.00473151	131.54
0.00475883	131.919
0.0047863	132.299
0.00481393	132.68
0.00484172	133.063
0.00486968	133.446
0.00489779	133.831
0.00492606	134.217
0.0049545	134.603
0.0049831	134.991
0.00501187	135.381
0.00504081	135.771
0.00506991	136.162
0.00509918	136.555
0.00512861	136.948
0.00515822	137.343
0.005188	137.739
0.00521795	138.136
0.00524807	138.534
0.00527837	138.933
0.00530884	139.334
0.00533949	139.735
0.00537032	140.138
0.00540132	140.542
0.0054325	140.947
0.00546387	141.353
0.00549541	141.761
0.00552713	142.169
0.00555904	142.579
0.00559114	142.99
0.00562341	143.402
0.00565588	143.816
0.00568853	144.23
0.00572137	144.646
0.0057544	145.063
0.00578762	145.481
0.00582103	145.9
0.00585464	146.321
0.00588844	146.743
0.00592243	147.166
0.00595662	147.59
0.00599101	148.015
0.0060256	148.442
0.00606038	148.87
0.00609537	149.299
0.00613056	149.729
0.00616595	150.161
0.00620155	150.593
0.00623735	151.028
0.00627336	151.463
0.00630957	151.899
0.006346	152.337
0.00638263	152.776
0.00641948	153.217
0.00645654	153.658
0.00649382	154.101
0.00653131	154.545
0.00656901	154.991
0.00660693	155.438
0.00664508	155.886
0.00668344	156.335
0.00672202	156.786
0.00676083	157.238
0.00679986	157.691
0.00683912	158.145
0.0068786	158.601
0.00691831	159.058
0.00695825	159.517
0.00699842	159.976
0.00703882	160.438
0.00707946	160.9
0.00712033	161.364
0.00716143	161.829
0.00720278	162.295
0.00724436	162.763
0.00728618	163.232
0.00732825	163.703
0.00737055	164.175
0.0074131	164.648
0.0074559	165.122
0.00749894	165.598
0.00754223	166.076
0.00758578	166.554
0.00762957	167.035
0.00767361	167.516
0.00771792	167.999
0.00776247	168.483
0.00780728	168.969
0.00785236	169.456
0.00789769	169.944
0.00794328	170.434
0.00798914	170.925
0.00803526	171.418
0.00808165	171.912
0.00812831	172.408
0.00817523	172.904
0.00822243	173.403
0.0082699	173.903
0.00831764	174.404
0.00836566	174.907
0.00841395	175.411
0.00846253	175.916
0.00851138	176.423
0.00856052	176.932
0.00860994	177.442
0.00865964	177.953
0.00870964	178.466
0.00875992	178.981
0.00881049	179.497
0.00886135	180.014
0.00891251	180.533
0.00896396	181.053
0.00901571	181.575
0.00906776	182.098
0.00912011	182.623
0.00917276	183.15
0.00922571	183.678
0.00927897	184.207
0.00933254	184.738
0.00938642	185.27
0.00944061	185.804
0.00949511	186.34
0.00954993	186.877
0.00960506	187.416
0.00966051	187.956
0.00971628	188.498
0.00977237	189.041
0.00982879	189.586
0.00988553	190.132
0.0099426	190.68
0.01	191.226
0.0100577	191.764
0.0101158	192.304
0.0101742	192.845
0.0102329	193.387
0.010292	193.931
0.0103514	194.477
0.0104112	195.024
0.0104713	195.573
0.0105317	196.123
0.0105925	196.675
0.0106537	197.229
0.0107152	197.784
0.0107771	198.341
0.0108393	198.899
0.0109018	199.459
0.0109648	200.02
0.0110281	200.584
0.0110917	201.148
0.0111558	201.715
0.0112202	202.283
0.011285	202.853
0.0113501	203.424
0.0114156	203.997
0.0114815	204.572
0.0115478	205.148
0.0116145	205.726
0.0116815	206.305
0.011749	206.887
0.0118168	207.47
0.011885	208.054
0.0119536	208.641
0.0120226	209.229
0.0120921	209.818
0.0121619	210.41
0.0122321	211.003
0.0123027	211.598
0.0123737	212.194
0.0124451	212.792
0.012517	213.392
0.0125893	213.994
0.0126619	214.598
0.012735	215.203
0.0128086	215.81
0.0128825	216.419
0.0129569	217.029
0.0130317	217.641
0.0131069	218.255
0.0131826	218.871
0.0132587	219.489
0.0133352	220.108
0.0134122	220.729
0.0134896	221.352
0.0135675	221.977
0.0136458	222.603
0.0137246	223.231
0.0138038	223.861
0.0138835	224.493
0.0139637	225.127
0.0140443	225.763
0.0141254	226.4
0.0142069	227.04
0.0142889	227.681
0.0143714	228.324
0.0144544	228.969
0.0145378	229.615
0.0146218	230.264
0.0147062	230.914
0.0147911	231.567
0.0148765	232.221
0.0149624	232.877
0.0150487	233.535
0.0151356	234.195
0.015223	234.857
0.0153109	235.52
0.0153993	236.186
0.0154882	236.854
0.0155776	237.523
0.0156675	238.195
0.015758	238.868
0.0158489	239.543
0.0159404	240.221
0.0160325	240.9
0.016125	241.581
0.0162181	242.264
0.0163117	242.95
0.0164059	243.637
0.0165006	244.326
0.0165959	245.017
0.0166917	245.71
0.016788	246.405
0.016885	247.103
0.0169824	247.802
0.0170805	248.503
0.0171791	249.206
0.0172783	249.911
0.017378	250.619
0.0174783	251.328
0.0175792	252.04
0.0176807	252.753
0.0177828	253.469
0.0178855	254.186
0.0179887	254.906
0.0180926	255.628
0.018197	256.352
0.0183021	257.078
0.0184077	257.806
0.018514	258.536
0.0186209	259.268
0.0187284	260.003
0.0188365	260.739
0.0189452	261.478
0.0190546	262.219
0.0191646	262.962
0.0192752	263.707
0.0193865	264.454
0.0194984	265.204
0.019611	265.956
0.0197242	266.709
0.0198381	267.465
0.0199526	268.224
0.0200678	268.984
0.0201837	269.747
0.0203002	270.512
0.0204174	271.279
0.0205353	272.048
0.0206538	272.82
0.020773	273.593
0.020893	274.369
0.0210136	275.148
0.0211349	275.928
0.0212569	276.711
0.0213796	277.496
0.021503	278.283
0.0216272	279.073
0.021752	279.865
0.0218776	280.659
0.0220039	281.456
0.0221309	282.255
0.0222587	283.056
0.0223872	283.859
0.0225165	284.665
0.0226464	285.474
0.0227772	286.284
0.0229087	287.097
0.0230409	287.912
0.0231739	288.73
0.0233077	289.55
0.0234423	290.372
0.0235776	291.197
0.0237137	292.024
0.0238506	292.854
0.0239883	293.686
0.0241268	294.52
0.0242661	295.357
0.0244062	296.197
0.0245471	297.038
0.0246888	297.883
0.0248313	298.729
0.0249747	299.578
0.0251189	300.43
0.0252639	301.284
0.0254097	302.141
0.0255564	303
0.025704	303.861
0.0258523	304.725
0.0260016	305.592
0.0261517	306.461
0.0263027	307.333
0.0264545	308.207
0.0266073	309.083
0.0267609	309.963
0.0269153	310.845
0.0270707	311.729
0.027227	312.616
0.0273842	313.506
0.0275423	314.398
0.0277013	315.292
0.0278612	316.19
0.0280221	317.09
0.0281838	317.992
0.0283465	318.898
0.0285102	319.806
0.0286748	320.716
0.0288403	321.629
0.0290068	322.545
0.0291743	323.464
0.0293427	324.385
0.0295121	325.309
0.0296825	326.235
0.0298538	327.165
0.0300262	328.097
0.0301995	329.031
0.0303739	329.969
0.0305492	330.909
0.0307256	331.852
0.030903	332.798
0.0310814	333.746
0.0312608	334.697
0.0314413	335.651
0.0316228	336.608
0.0318053	337.568
0.031989	338.53
0.0321736	339.495
0.0323594	340.463
0.0325462	341.434
0.0327341	342.408
0.032923	343.384
0.0331131	344.364
0.0333043	345.346
0.0334965	346.331
0.0336899	347.319
0.0338844	348.31
0.03408	349.303
0.0342768	350.3
0.0344747	351.3
0.0346737	352.302
0.0348739	353.308
0.0350752	354.316
0.0352777	355.327
0.0354813	356.342
0.0356862	357.359
0.0358922	358.379
0.0360994	359.402
0.0363078	360.428
0.0365174	361.458
0.0367282	362.49
0.0369403	363.525
0.0371535	364.563
0.037368	365.605
0.0375837	366.649
0.0378007	367.696
0.0380189	368.747
0.0382384	369.8
0.0384592	370.857
0.0386812	371.917
0.0389045	372.979
0.0391291	374.045
0.039355	375.114
0.0395822	376.187
0.0398107	377.262
0.0400405	378.023
0.0402717	378.274
0.0405042	378.528
0.040738	378.784
0.0409732	379.043
0.0412098	379.305
0.0414477	379.569
0.0416869	379.836
0.0419276	380.106
0.0421697	380.377
0.0424131	380.652
0.042658	380.928
0.0429042	381.207
0.0431519	381.489
0.043401	381.772
0.0436516	382.058
0.0439036	382.347
0.044157	382.637
0.044412	382.93
0.0446684	383.225
0.0449262	383.521
0.0451856	383.821
0.0454465	384.122
0.0457088	384.425
0.0459727	384.73
0.0462381	385.037
0.046505	385.347
0.0467735	385.658
0.0470435	385.971
0.0473151	386.286
0.0475883	386.603
0.047863	386.922
0.0481393	387.243
0.0484172	387.565
0.0486968	387.889
0.0489779	388.216
0.0492606	388.544
0.049545	388.873
0.049831	389.205
0.0501187	389.538
0.0504081	389.873
0.0506991	390.209
0.0509918	390.547
0.0512861	390.887
0.0515822	391.229
0.05188	391.572
0.0521795	391.917
0.0524807	392.263
0.0527837	392.611
0.0530884	392.96
0.0533949	393.311
0.0537032	393.664
0.0540132	394.018
0.054325	394.374
0.0546387	394.731
0.0549541	395.089
0.0552713	395.449
0.0555904	395.811
0.0559114	396.174
0.0562341	396.538
0.0565588	396.904
0.0568853	397.272
0.0572137	397.64
0.057544	398.011
0.0578762	398.382
0.0582103	398.755
0.0585464	399.13
0.0588844	399.505
0.0592243	399.883
0.0595662	400.261
0.0599101	400.641
0.060256	401.022
0.0606038	401.405
0.0609537	401.789
0.0613056	402.174
0.0616595	402.56
0.0620155	402.948
0.0623735	403.338
0.0627336	403.728
0.0630957	404.12
0.06346	404.513
0.0638263	404.908
0.0641948	405.303
0.0645654	405.701
0.0649382	406.099
0.0653131	406.499
0.0656901	406.9
0.0660693	407.302
0.0664508	407.705
0.0668344	408.11
0.0672202	408.516
0.0676083	408.924
0.0679986	409.332
0.0683912	409.742
0.068786	410.154
0.0691831	410.566
0.0695825	410.98
0.0699842	411.395
0.0703882	411.811
0.0707946	412.229
0.0712033	412.648
0.0716143	413.068
0.0720278	413.49
0.0724436	413.913
0.0728618	414.337
0.0732825	414.762
0.0737055	415.189
0.074131	415.617
0.074559	416.046
0.0749894	416.476
0.0754223	416.908
0.0758578	417.341
0.0762957	417.776
0.0767361	418.212
0.0771792	418.649
0.0776247	419.087
0.0780728	419.527
0.0785236	419.968
0.0789769	420.41
0.0794328	420.854
0.0798914	421.299
0.0803526	421.745
0.0808165	422.193
0.0812831	422.642
0.0817523	423.092
0.0822243	423.544
0.082699	423.997
0.0831764	424.452
0.0836566	424.908
0.0841395	425.365
0.0846253	425.824
0.0851138	426.284
0.0856052	426.745
0.0860994	427.208
0.0865964	427.672
0.0870964	428.138
0.0875992	428.605
0.0881049	429.073
0.0886135	429.543
0.0891251	430.015
0.0896396	430.488
0.0901571	430.962
0.0906776	431.438
0.0912011	431.915
0.0917276	432.394
0.0922571	432.874
0.0927897	433.355
0.0933254	433.839
0.0938642	434.323
0.0944061	434.809
0.0949511	435.297
0.0954993	435.786
0.0960506	436.277
0.0966051	436.769
0.0971628	437.263
0.0977237	437.759
0.0982879	438.256
0.0988553	438.754
0.099426	439.255
0.1	439.756
0.100577	440.26
0.101158	440.765
0.101742	441.272
0.102329	441.78
0.10292	442.29
0.103514	442.801
0.104112	443.315
0.104713	443.829
0.105317	444.346
0.105925	444.864
0.106537	445.384
0.107152	445.906
0.107771	446.429
0.108393	446.954
0.109018	447.481
0.109648	448.01
0.110281	448.54
0.110917	449.072
0.111558	449.606
0.112202	450.142
0.11285	450.68
0.113501	451.219
0.114156	451.76
0.114815	452.303
0.115478	452.848
0.116145	453.394
0.116815	453.943
0.11749	454.493
0.118168	455.046
0.11885	455.6
0.119536	456.156
0.120226	456.714
0.120921	457.274
0.121619	457.836
0.122321	458.399
0.123027	458.965
0.123737	459.533
0.124451	460.102
0.12517	460.674
0.125893	461.248
0.126619	461.823
0.12735	462.401
0.128086	462.981
0.128825	463.563
0.129569	464.147
0.130317	464.732
0.131069	465.32
0.131826	465.911
0.132587	466.503
0.133352	467.097
0.134122	467.693
0.134896	468.292
0.135675	468.893
0.136458	469.495
0.137246	470.101
0.138038	470.708
0.138835	471.317
0.139637	471.929
0.140443	472.543
0.141254	473.159
0.142069	473.777
0.142889	474.397
0.143714	475.02
0.144544	475.645
0.145378	476.273
0.146218	476.902
0.147062	477.534
0.147911	478.169
0.148765	478.805
0.149624	479.444
0.150487	480.086
0.151356	480.729
0.15223	481.375
0.153109	482.024
0.153993	482.675
0.154882	483.328
0.155776	483.984
0.156675	484.642
0.15758	485.302
0.158489	485.965
0.159404	486.631
0.160325	487.299
0.16125	487.97
0.162181	488.643
0.163117	489.318
0.164059	489.996
0.165006	490.677
0.165959	491.36
0.166917	492.046
0.16788	492.734
0.16885	493.425
0.169824	494.119
0.170805	494.815
0.171791	495.514
0.172783	496.215
0.17378	496.919
0.174783	497.626
0.175792	498.336
0.176807	499.048
0.177828	499.763
0.178855	500.48
0.179887	501.201
0.180926	501.924
0.18197	502.65
0.183021	503.378
0.184077	504.109
0.18514	504.844
0.186209	505.58
0.187284	506.32
0.188365	507.063
0.189452	507.808
0.190546	508.556
0.191646	509.308
0.192752	510.061
0.193865	510.818
0.194984	511.578
0.19611	512.341
0.197242	513.106
0.198381	513.875
0.199526	514.646
0.200678	515.421
0.201837	516.198
0.203002	516.978
0.204174	517.762
0.205353	518.548
0.206538	519.338
0.20773	520.13
0.20893	520.925
0.210136	521.724
0.211349	522.525
0.212569	523.33
0.213796	524.138
0.21503	524.949
0.216272	525.763
0.21752	526.58
0.218776	527.4
0.220039	528.223
0.221309	529.05
0.222587	529.879
0.223872	530.712
0.225165	531.548
0.226464	532.387
0.227772	533.23
0.229087	534.075
0.230409	534.924
0.231739	535.776
0.233077	536.632
0.234423	537.491
0.235776	538.353
0.237137	539.218
0.238506	540.086
0.239883	540.958
0.241268	541.833
0.242661	542.712
0.244062	543.594
0.245471	544.479
0.246888	545.368
0.248313	546.26
0.249747	547.156
0.251189	548.054
0.252639	548.957
0.254097	549.862
0.255564	550.772
0.25704	551.684
0.258523	552.6
0.260016	553.52
0.261517	554.443
0.263027	555.37
0.264545	556.3
0.266073	557.233
0.267609	558.17
0.269153	559.111
0.270707	560.055
0.27227	561.003
0.273842	561.955
0.275423	562.909
0.277013	563.868
0.278612	564.83
0.280221	565.796
0.281838	566.766
0.283465	567.739
0.285102	568.715
0.286748	569.696
0.288403	570.68
0.290068	571.668
0.291743	572.659
0.293427	573.654
0.295121	574.653
0.296825	575.656
0.298538	576.662
0.300262	577.672
0.301995	578.686
0.303739	579.704
0.305492	580.725
0.307256	581.75
0.30903	582.779
0.310814	583.812
0.312608	584.849
0.314413	585.889
0.316228	586.934
0.318053	587.982
0.31989	589.034
0.321736	590.09
0.323594	591.149
0.325462	592.213
0.327341	593.281
0.32923	594.352
0.331131	595.427
0.333043	596.507
0.334965	597.59
0.336899	598.677
0.338844	599.768
0.3408	600.863
0.342768	601.962
0.344747	603.066
0.346737	604.173
0.348739	605.284
0.350752	606.399
0.352777	607.518
0.354813	608.641
0.356862	609.768
0.358922	610.899
0.360994	612.035
0.363078	613.174
0.365174	614.317
0.367282	615.465
0.369403	616.616
0.371535	617.772
0.37368	618.932
0.375837	620.096
0.378007	621.264
0.380189	622.436
0.382384	623.612
0.384592	624.792
0.386812	625.977
0.389045	627.166
0.391291	628.358
0.39355	629.556
0.395822	630.757
0.398107	631.962
0.400405	633.172
0.402717	634.386
0.405042	635.604
0.40738	636.826
0.409732	638.052
0.412098	639.283
0.414477	640.518
0.416869	641.757
0.419276	643.001
0.421697	644.248
0.424131	645.5
0.42658	646.757
0.429042	648.017
0.431519	649.282
0.43401	650.551
0.436516	651.824
0.439036	653.102
0.44157	654.384
0.44412	655.67
0.446684	656.961
0.449262	658.256
0.451856	659.555
0.454465	660.859
0.457088	662.167
0.459727	663.479
0.462381	664.796
0.46505	666.117
0.467735	667.442
0.470435	668.772
0.473151	670.106
0.475883	671.444
0.47863	672.787
0.481393	674.134
0.484172	675.485
0.486968	676.841
0.489779	678.201
0.492606	679.566
0.49545	680.935
0.49831	682.309
0.501187	683.686
0.504081	685.069
0.506991	686.455
0.509918	687.846
0.512861	689.242
0.515822	690.641
0.5188	692.046
0.521795	693.454
0.524807	694.867
0.527837	696.285
0.530884	697.707
0.533949	699.133
0.537032	700.563
0.540132	701.999
0.54325	703.438
0.546387	704.882
0.549541	706.33
0.552713	707.783
0.555904	709.24
0.559114	710.702
0.562341	712.168
0.565588	713.638
0.568853	715.113
0.572137	716.592
0.57544	718.075
0.578762	719.563
0.582103	721.056
0.585464	722.552
0.588844	724.053
0.592243	725.559
0.595662	727.069
0.599101	728.583
0.60256	730.102
0.606038	731.625
0.609537	733.152
