Stopping power dEdx from Ionisation for B11[0.0] Z = 5 in G4_Si, process name: ionIoni
E [MeV]	dEdx [MeV/mm]
0.001	30.2298
0.00100577	30.3176
0.00101158	30.4057
0.00101742	30.494
0.00102329	30.5825
0.0010292	30.6714
0.00103514	30.7604
0.00104112	30.8498
0.00104713	30.9394
0.00105317	31.0292
0.00105925	31.1193
0.00106537	31.2097
0.00107152	31.3003
0.00107771	31.3912
0.00108393	31.4823
0.00109018	31.5738
0.00109648	31.6654
0.00110281	31.7574
0.00110917	31.8496
0.00111558	31.942
0.00112202	32.0348
0.0011285	32.1278
0.00113501	32.2211
0.00114156	32.3146
0.00114815	32.4084
0.00115478	32.5025
0.00116145	32.5969
0.00116815	32.6915
0.0011749	32.7864
0.00118168	32.8815
0.0011885	32.977
0.00119536	33.0727
0.00120226	33.1687
0.00120921	33.265
0.00121619	33.3615
0.00122321	33.4584
0.00123027	33.5555
0.00123737	33.6529
0.00124451	33.7505
0.0012517	33.8485
0.00125893	33.9467
0.00126619	34.0452
0.0012735	34.144
0.00128086	34.2431
0.00128825	34.3425
0.00129569	34.4421
0.00130317	34.5421
0.00131069	34.6423
0.00131826	34.7428
0.00132587	34.8436
0.00133352	34.9447
0.00134122	35.0461
0.00134896	35.1478
0.00135675	35.2498
0.00136458	35.3521
0.00137246	35.4546
0.00138038	35.5575
0.00138835	35.6607
0.00139637	35.7641
0.00140443	35.8679
0.00141254	35.9719
0.00142069	36.0763
0.00142889	36.1809
0.00143714	36.2859
0.00144544	36.3912
0.00145378	36.4967
0.00146218	36.6026
0.00147062	36.7087
0.00147911	36.8152
0.00148765	36.922
0.00149624	37.0291
0.00150487	37.1365
0.00151356	37.2442
0.0015223	37.3522
0.00153109	37.4606
0.00153993	37.5692
0.00154882	37.6782
0.00155776	37.7874
0.00156675	37.897
0.0015758	38.0069
0.00158489	38.1171
0.00159404	38.2277
0.00160325	38.3385
0.0016125	38.4497
0.00162181	38.5612
0.00163117	38.673
0.00164059	38.7852
0.00165006	38.8976
0.00165959	39.0104
0.00166917	39.1235
0.0016788	39.237
0.0016885	39.3507
0.00169824	39.4648
0.00170805	39.5792
0.00171791	39.694
0.00172783	39.8091
0.0017378	39.9245
0.00174783	40.0402
0.00175792	40.1563
0.00176807	40.2727
0.00177828	40.3895
0.00178855	40.5066
0.00179887	40.624
0.00180926	40.7417
0.0018197	40.8598
0.00183021	40.9783
0.00184077	41.0971
0.0018514	41.2162
0.00186209	41.3357
0.00187284	41.4555
0.00188365	41.5756
0.00189452	41.6961
0.00190546	41.817
0.00191646	41.9382
0.00192752	42.0598
0.00193865	42.1817
0.00194984	42.3039
0.0019611	42.4265
0.00197242	42.5495
0.00198381	42.6728
0.00199526	42.7964
0.00200678	42.9205
0.00201837	43.0449
0.00203002	43.1696
0.00204174	43.2947
0.00205353	43.4202
0.00206538	43.546
0.0020773	43.6722
0.0020893	43.7987
0.00210136	43.9256
0.00211349	44.0529
0.00212569	44.1805
0.00213796	44.3086
0.0021503	44.4369
0.00216272	44.5657
0.0021752	44.6948
0.00218776	44.8243
0.00220039	44.9542
0.00221309	45.0844
0.00222587	45.215
0.00223872	45.346
0.00225165	45.4774
0.00226464	45.6092
0.00227772	45.7413
0.00229087	45.8738
0.00230409	46.0067
0.00231739	46.14
0.00233077	46.2736
0.00234423	46.4077
0.00235776	46.5421
0.00237137	46.6769
0.00238506	46.8122
0.00239883	46.9478
0.00241268	47.0837
0.00242661	47.2201
0.00244062	47.3569
0.00245471	47.4941
0.00246888	47.6316
0.00248313	47.7696
0.00249747	47.908
0.00251189	48.0467
0.00252639	48.1859
0.00254097	48.3254
0.00255564	48.4654
0.0025704	48.6057
0.00258523	48.7465
0.00260016	48.8877
0.00261517	49.0293
0.00263027	49.1713
0.00264545	49.3137
0.00266073	49.4565
0.00267609	49.5997
0.00269153	49.7433
0.00270707	49.8874
0.0027227	50.0318
0.00273842	50.1767
0.00275423	50.322
0.00277013	50.4677
0.00278612	50.6139
0.00280221	50.7604
0.00281838	50.9074
0.00283465	51.0548
0.00285102	51.2026
0.00286748	51.3509
0.00288403	51.4996
0.00290068	51.6487
0.00291743	51.7982
0.00293427	51.9482
0.00295121	52.0986
0.00296825	52.2494
0.00298538	52.4007
0.00300262	52.5524
0.00301995	52.7045
0.00303739	52.8571
0.00305492	53.0102
0.00307256	53.1636
0.0030903	53.3175
0.00310814	53.4719
0.00312608	53.6267
0.00314413	53.7819
0.00316228	53.9376
0.00318053	54.0937
0.0031989	54.2503
0.00321736	54.4074
0.00323594	54.5649
0.00325462	54.7228
0.00327341	54.8812
0.0032923	55.0401
0.00331131	55.1994
0.00333043	55.3591
0.00334965	55.5194
0.00336899	55.6801
0.00338844	55.8412
0.003408	56.0029
0.00342768	56.1649
0.00344747	56.3275
0.00346737	56.4905
0.00348739	56.654
0.00350752	56.818
0.00352777	56.9824
0.00354813	57.1473
0.00356862	57.3127
0.00358922	57.4786
0.00360994	57.6449
0.00363078	57.8118
0.00365174	57.9791
0.00367282	58.1469
0.00369403	58.3151
0.00371535	58.4839
0.0037368	58.6531
0.00375837	58.8229
0.00378007	58.9931
0.00380189	59.1638
0.00382384	59.335
0.00384592	59.5067
0.00386812	59.6789
0.00389045	59.8516
0.00391291	60.0247
0.0039355	60.1984
0.00395822	60.3726
0.00398107	60.5473
0.00400405	60.7225
0.00402717	60.8982
0.00405042	61.0744
0.0040738	61.2511
0.00409732	61.4283
0.00412098	61.606
0.00414477	61.7843
0.00416869	61.963
0.00419276	62.1423
0.00421697	62.3221
0.00424131	62.5024
0.0042658	62.6832
0.00429042	62.8645
0.00431519	63.0464
0.0043401	63.2288
0.00436516	63.4117
0.00439036	63.5952
0.0044157	63.7791
0.0044412	63.9636
0.00446684	64.1487
0.00449262	64.3343
0.00451856	64.5204
0.00454465	64.707
0.00457088	64.8942
0.00459727	65.0819
0.00462381	65.2702
0.0046505	65.459
0.00467735	65.6483
0.00470435	65.8382
0.00473151	66.0286
0.00475883	66.2196
0.0047863	66.4112
0.00481393	66.6033
0.00484172	66.7959
0.00486968	66.9891
0.00489779	67.1829
0.00492606	67.3772
0.0049545	67.572
0.0049831	67.7675
0.00501187	67.9635
0.00504081	68.16
0.00506991	68.3572
0.00509918	68.5549
0.00512861	68.7531
0.00515822	68.952
0.005188	69.1514
0.00521795	69.3514
0.00524807	69.552
0.00527837	69.7531
0.00530884	69.9548
0.00533949	70.1571
0.00537032	70.36
0.00540132	70.5635
0.0054325	70.7675
0.00546387	70.9722
0.00549541	71.1774
0.00552713	71.3833
0.00555904	71.5897
0.00559114	71.7967
0.00562341	72.0043
0.00565588	72.2125
0.00568853	72.4213
0.00572137	72.6308
0.0057544	72.8408
0.00578762	73.0514
0.00582103	73.2626
0.00585464	73.4745
0.00588844	73.6869
0.00592243	73.9
0.00595662	74.1137
0.00599101	74.3279
0.0060256	74.5429
0.00606038	74.7584
0.00609537	74.9745
0.00613056	75.1913
0.00616595	75.4087
0.00620155	75.6267
0.00623735	75.8454
0.00627336	76.0647
0.00630957	76.2846
0.006346	76.5051
0.00638263	76.7263
0.00641948	76.9481
0.00645654	77.1706
0.00649382	77.3937
0.00653131	77.6175
0.00656901	77.8418
0.00660693	78.0669
0.00664508	78.2926
0.00668344	78.5189
0.00672202	78.7459
0.00676083	78.9735
0.00679986	79.2018
0.00683912	79.4308
0.0068786	79.6604
0.00691831	79.8907
0.00695825	80.1216
0.00699842	80.3533
0.00703882	80.5855
0.00707946	80.8185
0.00712033	81.0521
0.00716143	81.2864
0.00720278	81.5214
0.00724436	81.757
0.00728618	81.9933
0.00732825	82.2303
0.00737055	82.468
0.0074131	82.7064
0.0074559	82.9454
0.00749894	83.1852
0.00754223	83.4256
0.00758578	83.6668
0.00762957	83.9086
0.00767361	84.1511
0.00771792	84.3943
0.00776247	84.6383
0.00780728	84.8829
0.00785236	85.1282
0.00789769	85.3743
0.00794328	85.621
0.00798914	85.8685
0.00803526	86.1167
0.00808165	86.3655
0.00812831	86.6151
0.00817523	86.8655
0.00822243	87.1165
0.0082699	87.3683
0.00831764	87.6208
0.00836566	87.874
0.00841395	88.128
0.00846253	88.3827
0.00851138	88.6381
0.00856052	88.8942
0.00860994	89.1511
0.00865964	89.4088
0.00870964	89.6671
0.00875992	89.9263
0.00881049	90.1861
0.00886135	90.4468
0.00891251	90.7081
0.00896396	90.9703
0.00901571	91.2331
0.00906776	91.4968
0.00912011	91.7612
0.00917276	92.0263
0.00922571	92.2922
0.00927897	92.5589
0.00933254	93.0584
0.00938642	93.3266
0.00944061	93.5956
0.00949511	93.8654
0.00954993	94.1359
0.00960506	94.4073
0.00966051	94.6794
0.00971628	94.9523
0.00977237	95.226
0.00982879	95.5005
0.00988553	95.7757
0.0099426	96.0518
0.01	96.3286
0.0100577	96.6063
0.0101158	96.8848
0.0101742	97.164
0.0102329	97.4441
0.010292	97.725
0.0103514	98.0066
0.0104112	98.2891
0.0104713	98.5724
0.0105317	98.8566
0.0105925	99.1415
0.0106537	99.4273
0.0107152	99.7138
0.0107771	100.001
0.0108393	100.289
0.0109018	100.579
0.0109648	100.868
0.0110281	101.159
0.0110917	101.451
0.0111558	101.743
0.0112202	102.036
0.011285	102.331
0.0113501	102.626
0.0114156	102.921
0.0114815	103.218
0.0115478	103.516
0.0116145	103.814
0.0116815	104.113
0.011749	104.413
0.0118168	104.714
0.011885	105.016
0.0119536	105.319
0.0120226	105.622
0.0120921	105.927
0.0121619	106.232
0.0122321	106.538
0.0123027	106.845
0.0123737	107.153
0.0124451	107.462
0.012517	107.772
0.0125893	108.083
0.0126619	108.394
0.012735	108.706
0.0128086	109.02
0.0128825	109.334
0.0129569	109.649
0.0130317	109.965
0.0131069	110.282
0.0131826	110.6
0.0132587	110.919
0.0133352	111.239
0.0134122	111.559
0.0134896	111.881
0.0135675	112.203
0.0136458	112.527
0.0137246	112.851
0.0138038	113.176
0.0138835	113.503
0.0139637	113.83
0.0140443	114.158
0.0141254	114.487
0.0142069	114.817
0.0142889	115.148
0.0143714	115.48
0.0144544	115.813
0.0145378	116.146
0.0146218	116.481
0.0147062	116.817
0.0147911	117.154
0.0148765	117.491
0.0149624	117.83
0.0150487	118.17
0.0151356	118.51
0.015223	118.852
0.0153109	119.194
0.0153993	119.538
0.0154882	119.882
0.0155776	120.228
0.0156675	120.574
0.015758	120.922
0.0158489	121.271
0.0159404	121.62
0.0160325	121.971
0.016125	122.322
0.0162181	122.675
0.0163117	123.028
0.0164059	123.383
0.0165006	123.739
0.0165959	124.095
0.0166917	124.453
0.016788	124.812
0.016885	125.172
0.0169824	125.532
0.0170805	125.894
0.0171791	126.257
0.0172783	126.621
0.017378	126.986
0.0174783	127.352
0.0175792	127.719
0.0176807	128.087
0.0177828	128.456
0.0178855	128.827
0.0179887	129.198
0.0180926	129.57
0.018197	129.944
0.0183021	130.318
0.0184077	130.694
0.018514	131.071
0.0186209	131.448
0.0187284	131.827
0.0188365	132.207
0.0189452	132.588
0.0190546	132.971
0.0191646	133.354
0.0192752	133.738
0.0193865	134.124
0.0194984	134.51
0.019611	134.898
0.0197242	135.287
0.0198381	135.677
0.0199526	136.068
0.0200678	136.46
0.0201837	136.853
0.0203002	137.248
0.0204174	137.643
0.0205353	138.04
0.0206538	138.438
0.020773	138.837
0.020893	139.237
0.0210136	139.639
0.0211349	140.041
0.0212569	140.445
0.0213796	140.85
0.021503	141.256
0.0216272	141.663
0.021752	142.071
0.0218776	142.481
0.0220039	142.891
0.0221309	143.303
0.0222587	143.716
0.0223872	144.13
0.0225165	144.546
0.0226464	144.962
0.0227772	145.38
0.0229087	145.799
0.0230409	146.22
0.0231739	146.641
0.0233077	147.064
0.0234423	147.488
0.0235776	147.913
0.0237137	148.339
0.0238506	148.767
0.0239883	149.195
0.0241268	149.625
0.0242661	150.057
0.0244062	150.489
0.0245471	150.923
0.0246888	151.358
0.0248313	151.794
0.0249747	152.232
0.0251189	152.671
0.0252639	153.111
0.0254097	153.552
0.0255564	153.995
0.025704	154.438
0.0258523	154.884
0.0260016	155.33
0.0261517	155.778
0.0263027	156.227
0.0264545	156.677
0.0266073	157.129
0.0267609	157.582
0.0269153	158.036
0.0270707	158.491
0.027227	158.948
0.0273842	159.406
0.0275423	159.866
0.0277013	160.327
0.0278612	160.789
0.0280221	161.252
0.0281838	161.717
0.0283465	162.183
0.0285102	162.651
0.0286748	163.119
0.0288403	163.59
0.0290068	164.061
0.0291743	164.534
0.0293427	165.008
0.0295121	165.484
0.0296825	165.961
0.0298538	166.439
0.0300262	166.919
0.0301995	167.4
0.0303739	167.883
0.0305492	168.366
0.0307256	168.852
0.030903	169.338
0.0310814	169.827
0.0312608	170.316
0.0314413	170.807
0.0316228	171.299
0.0318053	171.793
0.031989	172.288
0.0321736	172.785
0.0323594	173.283
0.0325462	173.782
0.0327341	174.283
0.032923	174.786
0.0331131	175.289
0.0333043	175.795
0.0334965	176.301
0.0336899	176.809
0.0338844	177.319
0.03408	177.83
0.0342768	178.343
0.0344747	178.857
0.0346737	179.372
0.0348739	179.889
0.0350752	180.408
0.0352777	180.928
0.0354813	181.449
0.0356862	181.972
0.0358922	182.497
0.0360994	183.023
0.0363078	183.55
0.0365174	184.08
0.0367282	184.61
0.0369403	185.142
0.0371535	185.676
0.037368	186.211
0.0375837	186.748
0.0378007	187.286
0.0380189	187.826
0.0382384	188.367
0.0384592	188.91
0.0386812	189.455
0.0389045	190.001
0.0391291	190.548
0.039355	191.098
0.0395822	191.649
0.0398107	192.201
0.0400405	192.755
0.0402717	193.311
0.0405042	193.868
0.040738	194.427
0.0409732	194.987
0.0412098	195.549
0.0414477	196.113
0.0416869	196.678
0.0419276	197.245
0.0421697	197.813
0.0424131	198.383
0.042658	198.955
0.0429042	199.529
0.0431519	200.104
0.043401	200.681
0.0436516	201.259
0.0439036	201.839
0.044157	202.421
0.044412	203.004
0.0446684	203.59
0.0449262	204.176
0.0451856	204.765
0.0454465	205.355
0.0457088	205.947
0.0459727	206.541
0.0462381	207.136
0.046505	207.733
0.0467735	208.332
0.0470435	208.932
0.0473151	209.534
0.0475883	210.138
0.047863	210.744
0.0481393	211.352
0.0484172	211.961
0.0486968	212.572
0.0489779	213.184
0.0492606	213.799
0.049545	214.415
0.049831	215.033
0.0501187	215.653
0.0504081	216.275
0.0506991	216.898
0.0509918	217.523
0.0512861	218.15
0.0515822	218.779
0.05188	219.41
0.0521795	220.042
0.0524807	220.676
0.0527837	221.312
0.0530884	221.95
0.0533949	222.59
0.0537032	223.231
0.0540132	223.875
0.054325	224.52
0.0546387	225.167
0.0549541	225.816
0.0552713	226.467
0.0555904	227.12
0.0559114	227.775
0.0562341	228.431
0.0565588	229.09
0.0568853	229.75
0.0572137	230.412
0.057544	231.076
0.0578762	231.742
0.0582103	232.41
0.0585464	233.08
0.0588844	233.752
0.0592243	234.426
0.0595662	235.102
0.0599101	235.779
0.060256	236.459
0.0606038	237.14
0.0609537	237.824
0.0613056	238.509
0.0616595	239.197
0.0620155	239.886
0.0623735	240.578
0.0627336	241.271
0.0630957	241.967
0.06346	242.664
0.0638263	243.364
0.0641948	244.065
0.0645654	244.768
0.0649382	245.474
0.0653131	246.182
0.0656901	246.891
0.0660693	247.603
0.0664508	248.316
0.0668344	249.032
0.0672202	249.75
0.0676083	250.47
0.0679986	251.192
0.0683912	251.916
0.068786	252.642
0.0691831	253.37
0.0695825	254.1
0.0699842	254.833
0.0703882	255.567
0.0707946	256.304
0.0712033	257.043
0.0716143	257.784
0.0720278	258.527
0.0724436	259.272
0.0728618	260.019
0.0732825	260.769
0.0737055	261.52
0.074131	262.274
0.074559	263.03
0.0749894	263.788
0.0754223	264.549
0.0758578	265.311
0.0762957	266.076
0.0767361	266.843
0.0771792	267.612
0.0776247	268.383
0.0780728	269.157
0.0785236	269.933
0.0789769	270.711
0.0794328	271.491
0.0798914	272.274
0.0803526	273.058
0.0808165	273.845
0.0812831	274.635
0.0817523	275.426
0.0822243	276.22
0.082699	277.016
0.0831764	277.815
0.0836566	278.616
0.0841395	279.419
0.0846253	280.224
0.0851138	281.032
0.0856052	281.842
0.0860994	282.654
0.0865964	283.469
0.0870964	284.286
0.0875992	285.105
0.0881049	285.927
0.0886135	286.751
0.0891251	287.578
0.0896396	288.407
0.0901571	289.238
0.0906776	290.072
0.0912011	290.908
0.0917276	291.746
0.0922571	292.587
0.0927897	293.431
0.0933254	294.276
0.0938642	295.125
0.0944061	295.975
0.0949511	296.828
0.0954993	297.684
0.0960506	298.542
0.0966051	299.403
0.0971628	300.266
0.0977237	301.131
0.0982879	301.999
0.0988553	302.869
0.099426	303.742
0.1	304.618
0.100577	305.496
0.101158	306.377
0.101742	307.26
0.102329	308.145
0.10292	309.033
0.103514	309.924
0.104112	310.817
0.104713	311.713
0.105317	312.612
0.105925	313.513
0.106537	314.417
0.107152	315.323
0.107771	316.232
0.108393	317.143
0.109018	318.057
0.109648	318.974
0.110281	319.894
0.110917	320.816
0.111558	321.74
0.112202	322.668
0.11285	323.598
0.113501	324.53
0.114156	325.466
0.114815	326.404
0.115478	327.345
0.116145	328.288
0.116815	329.235
0.11749	330.184
0.118168	331.135
0.11885	332.09
0.119536	333.047
0.120226	334.007
0.120921	334.97
0.121619	335.935
0.122321	336.903
0.123027	337.875
0.123737	338.848
0.124451	339.825
0.12517	340.805
0.125893	341.787
0.126619	342.772
0.12735	343.76
0.128086	344.751
0.128825	345.745
0.129569	346.741
0.130317	347.741
0.131069	348.743
0.131826	349.748
0.132587	350.756
0.133352	351.767
0.134122	352.781
0.134896	353.798
0.135675	354.818
0.136458	355.841
0.137246	356.866
0.138038	357.895
0.138835	358.926
0.139637	359.961
0.140443	360.999
0.141254	362.039
0.142069	363.083
0.142889	364.129
0.143714	365.179
0.144544	366.231
0.145378	367.287
0.146218	368.346
0.147062	369.407
0.147911	370.472
0.148765	371.54
0.149624	372.611
0.150487	373.685
0.151356	374.762
0.15223	375.842
0.153109	376.925
0.153993	378.012
0.154882	379.101
0.155776	380.194
0.156675	381.29
0.15758	382.389
0.158489	383.491
0.159404	384.597
0.160325	385.705
0.16125	386.817
0.162181	387.932
0.163117	389.05
0.164059	390.171
0.165006	391.296
0.165959	392.424
0.166917	393.555
0.16788	394.689
0.16885	395.827
0.169824	396.968
0.170805	398.112
0.171791	399.26
0.172783	400.411
0.17378	401.565
0.174783	402.722
0.175792	403.883
0.176807	405.047
0.177828	406.215
0.178855	407.385
0.179887	408.56
0.180926	409.737
0.18197	410.918
0.183021	412.103
0.184077	413.291
0.18514	414.482
0.186209	415.676
0.187284	416.875
0.188365	418.076
0.189452	419.281
0.190546	420.49
0.191646	421.702
0.192752	422.917
0.193865	424.136
0.194984	425.359
0.19611	426.585
0.197242	427.814
0.198381	429.048
0.199526	430.284
0.200678	431.525
0.201837	432.768
0.203002	434.016
0.204174	435.267
0.205353	436.521
0.206538	437.78
0.20773	439.041
0.20893	440.307
0.210136	441.576
0.211349	442.849
0.212569	444.125
0.213796	445.405
0.21503	446.689
0.216272	447.977
0.21752	449.268
0.218776	450.563
0.220039	451.862
0.221309	453.164
0.222587	454.47
0.223872	455.78
0.225165	457.094
0.226464	458.411
0.227772	459.733
0.229087	461.058
0.230409	462.387
0.231739	463.72
0.233077	465.056
0.234423	466.397
0.235776	467.741
0.237137	469.089
0.238506	470.441
0.239883	471.797
0.241268	473.157
0.242661	474.521
0.244062	475.889
0.245471	477.26
0.246888	478.636
0.248313	480.016
0.249747	481.399
0.251189	482.787
0.252639	484.178
0.254097	485.574
0.255564	486.974
0.25704	488.377
0.258523	489.785
0.260016	491.197
0.261517	492.613
0.263027	494.032
0.264545	495.456
0.266073	496.885
0.267609	498.317
0.269153	499.753
0.270707	501.194
0.27227	502.638
0.273842	504.087
0.275423	505.601
0.277013	507.291
0.278612	508.992
0.280221	510.702
0.281838	512.422
0.283465	514.153
0.285102	515.893
0.286748	517.643
0.288403	519.404
0.290068	521.174
0.291743	522.954
0.293427	524.744
0.295121	526.545
0.296825	528.355
0.298538	530.175
0.300262	532.004
0.301995	533.844
0.303739	535.693
0.305492	537.552
0.307256	539.421
0.30903	541.3
0.310814	543.188
0.312608	545.086
0.314413	546.993
0.316228	548.91
0.318053	550.837
0.31989	552.772
0.321736	554.717
0.323594	556.672
0.325462	558.635
0.327341	560.608
0.32923	562.59
0.331131	564.49
0.333043	566.338
0.334965	568.193
0.336899	570.056
0.338844	571.927
0.3408	573.805
0.342768	575.691
0.344747	577.585
0.346737	579.486
0.348739	581.394
0.350752	583.309
0.352777	585.231
0.354813	587.16
0.356862	589.095
0.358922	591.037
0.360994	592.986
0.363078	594.941
0.365174	596.901
0.367282	598.868
0.369403	600.841
0.371535	602.819
0.37368	604.802
0.375837	606.791
0.378007	608.784
0.380189	610.783
0.382384	612.786
0.384592	614.793
0.386812	616.805
0.389045	618.821
0.391291	620.84
0.39355	622.863
0.395822	624.889
0.398107	626.918
0.400405	628.949
0.402717	630.983
0.405042	633.019
0.40738	635.057
0.409732	637.097
0.412098	639.138
0.414477	641.179
0.416869	643.222
0.419276	645.264
0.421697	647.307
0.424131	649.349
0.42658	651.39
0.429042	653.431
0.431519	655.469
0.43401	657.506
0.436516	659.541
0.439036	661.572
0.44157	663.576
0.44412	665.56
0.446684	667.54
0.449262	669.517
0.451856	671.49
0.454465	673.459
0.457088	675.424
0.459727	677.384
0.462381	679.341
0.46505	681.293
0.467735	683.241
0.470435	685.184
0.473151	687.123
0.475883	689.058
0.47863	690.987
0.481393	692.912
0.484172	694.832
0.486968	696.747
0.489779	698.657
0.492606	700.563
0.49545	702.463
0.49831	704.358
0.501187	706.247
0.504081	708.132
0.506991	710.011
0.509918	711.885
0.512861	713.753
0.515822	715.616
0.5188	717.473
0.521795	719.325
0.524807	721.171
0.527837	723.011
0.530884	724.846
0.533949	726.675
0.537032	728.498
0.540132	730.315
0.54325	732.127
0.546387	733.932
0.549541	735.732
0.552713	737.524
0.555904	739.309
0.559114	741.088
0.562341	742.862
0.565588	744.629
0.568853	746.389
0.572137	748.144
0.57544	749.892
0.578762	751.634
0.582103	753.369
0.585464	755.098
0.588844	756.82
0.592243	758.535
0.595662	760.244
0.599101	761.946
0.60256	763.641
0.606038	765.33
0.609537	767.011
