Stopping power dEdx from Ionisation for B11[0.0] Z = 5 in G4_TISSUE_SOFT_ICRP, process name: ionIoni
E [MeV]	dEdx [MeV/mm]
0.001	34.8431
0.00100577	34.9436
0.00101158	35.0443
0.00101742	35.1453
0.00102329	35.2466
0.0010292	35.3482
0.00103514	35.4501
0.00104112	35.5522
0.00104713	35.6547
0.00105317	35.7575
0.00105925	35.8606
0.00106537	35.9639
0.00107152	36.0676
0.00107771	36.1715
0.00108393	36.2758
0.00109018	36.3804
0.00109648	36.4852
0.00110281	36.5904
0.00110917	36.6959
0.00111558	36.8016
0.00112202	36.9077
0.0011285	37.0141
0.00113501	37.1208
0.00114156	37.2278
0.00114815	37.3351
0.00115478	37.4427
0.00116145	37.5506
0.00116815	37.6589
0.0011749	37.7674
0.00118168	37.8763
0.0011885	37.9854
0.00119536	38.0949
0.00120226	38.2047
0.00120921	38.3148
0.00121619	38.4253
0.00122321	38.536
0.00123027	38.6471
0.00123737	38.7585
0.00124451	38.8702
0.0012517	38.9823
0.00125893	39.0946
0.00126619	39.2073
0.0012735	39.3203
0.00128086	39.4337
0.00128825	39.5473
0.00129569	39.6613
0.00130317	39.7756
0.00131069	39.8903
0.00131826	40.0053
0.00132587	40.1206
0.00133352	40.2362
0.00134122	40.3522
0.00134896	40.4685
0.00135675	40.5851
0.00136458	40.7021
0.00137246	40.8194
0.00138038	40.9371
0.00138835	41.0551
0.00139637	41.1734
0.00140443	41.2921
0.00141254	41.4111
0.00142069	41.5305
0.00142889	41.6502
0.00143714	41.7703
0.00144544	41.8906
0.00145378	42.0114
0.00146218	42.1325
0.00147062	42.2539
0.00147911	42.3757
0.00148765	42.4979
0.00149624	42.6204
0.00150487	42.7432
0.00151356	42.8664
0.0015223	42.99
0.00153109	43.1139
0.00153993	43.2381
0.00154882	43.3628
0.00155776	43.4878
0.00156675	43.6131
0.0015758	43.7388
0.00158489	43.8649
0.00159404	43.9913
0.00160325	44.1181
0.0016125	44.2453
0.00162181	44.3728
0.00163117	44.5007
0.00164059	44.629
0.00165006	44.7576
0.00165959	44.8866
0.00166917	45.016
0.0016788	45.1458
0.0016885	45.2759
0.00169824	45.4064
0.00170805	45.5373
0.00171791	45.6685
0.00172783	45.8002
0.0017378	45.9322
0.00174783	46.0646
0.00175792	46.1974
0.00176807	46.3305
0.00177828	46.4641
0.00178855	46.598
0.00179887	46.7323
0.00180926	46.867
0.0018197	47.0021
0.00183021	47.1376
0.00184077	47.2734
0.0018514	47.4097
0.00186209	47.5463
0.00187284	47.6834
0.00188365	47.8208
0.00189452	47.9587
0.00190546	48.0969
0.00191646	48.2355
0.00192752	48.3746
0.00193865	48.514
0.00194984	48.6538
0.0019611	48.7941
0.00197242	48.9347
0.00198381	49.0758
0.00199526	49.2172
0.00200678	49.3591
0.00201837	49.5014
0.00203002	49.644
0.00204174	49.7871
0.00205353	49.9306
0.00206538	50.0746
0.0020773	50.2189
0.0020893	50.3636
0.00210136	50.5088
0.00211349	50.6544
0.00212569	50.8004
0.00213796	50.9468
0.0021503	51.0937
0.00216272	51.2409
0.0021752	51.3886
0.00218776	51.5368
0.00220039	51.6853
0.00221309	51.8343
0.00222587	51.9837
0.00223872	52.1335
0.00225165	52.2838
0.00226464	52.4345
0.00227772	52.5856
0.00229087	52.7372
0.00230409	52.8892
0.00231739	53.0417
0.00233077	53.1945
0.00234423	53.3479
0.00235776	53.5016
0.00237137	53.6559
0.00238506	53.8105
0.00239883	53.9656
0.00241268	54.1212
0.00242661	54.2772
0.00244062	54.4336
0.00245471	54.5905
0.00246888	54.7479
0.00248313	54.9057
0.00249747	55.0639
0.00251189	55.2226
0.00252639	55.3818
0.00254097	55.5414
0.00255564	55.7015
0.0025704	55.8621
0.00258523	56.0231
0.00260016	56.1846
0.00261517	56.3465
0.00263027	56.5089
0.00264545	56.6718
0.00266073	56.8352
0.00267609	56.999
0.00269153	57.1633
0.00270707	57.328
0.0027227	57.4933
0.00273842	57.659
0.00275423	57.8243
0.00277013	57.9869
0.00278612	58.15
0.00280221	58.3136
0.00281838	58.4776
0.00283465	58.6422
0.00285102	58.8072
0.00286748	58.9726
0.00288403	59.1386
0.00290068	59.305
0.00291743	59.4719
0.00293427	59.6393
0.00295121	59.8071
0.00296825	59.9755
0.00298538	60.1443
0.00300262	60.3136
0.00301995	60.4834
0.00303739	60.6537
0.00305492	60.8245
0.00307256	60.9958
0.0030903	61.1676
0.00310814	61.3398
0.00312608	61.5126
0.00314413	61.6859
0.00316228	61.8596
0.00318053	62.0339
0.0031989	62.2086
0.00321736	62.3839
0.00323594	62.5597
0.00325462	62.736
0.00327341	62.9128
0.0032923	63.09
0.00331131	63.2679
0.00333043	63.4462
0.00334965	63.625
0.00336899	63.8044
0.00338844	63.9842
0.003408	64.1646
0.00342768	64.3455
0.00344747	64.527
0.00346737	64.7089
0.00348739	64.8914
0.00350752	65.0744
0.00352777	65.2579
0.00354813	65.442
0.00356862	65.6266
0.00358922	65.8117
0.00360994	65.9974
0.00363078	66.1836
0.00365174	66.3703
0.00367282	66.5576
0.00369403	66.7454
0.00371535	66.9337
0.0037368	67.1226
0.00375837	67.3121
0.00378007	67.5021
0.00380189	67.6926
0.00382384	67.8837
0.00384592	68.0754
0.00386812	68.2676
0.00389045	68.4603
0.00391291	68.6536
0.0039355	68.8475
0.00395822	69.0419
0.00398107	69.2369
0.00400405	69.4325
0.00402717	69.6286
0.00405042	69.8253
0.0040738	70.0226
0.00409732	70.2204
0.00412098	70.4188
0.00414477	70.6178
0.00416869	70.8173
0.00419276	71.0174
0.00421697	71.2181
0.00424131	71.4194
0.0042658	71.6213
0.00429042	71.8237
0.00431519	72.0268
0.0043401	72.2304
0.00436516	72.4346
0.00439036	72.6394
0.0044157	72.8448
0.0044412	73.0508
0.00446684	73.2574
0.00449262	73.4646
0.00451856	73.6724
0.00454465	73.8808
0.00457088	74.0898
0.00459727	74.2994
0.00462381	74.5096
0.0046505	74.7204
0.00467735	74.9318
0.00470435	75.1438
0.00473151	75.3565
0.00475883	75.5698
0.0047863	75.7836
0.00481393	75.9981
0.00484172	76.2133
0.00486968	76.429
0.00489779	76.6454
0.00492606	76.8624
0.0049545	77.08
0.0049831	77.2983
0.00501187	77.5172
0.00504081	77.7367
0.00506991	77.9569
0.00509918	78.1777
0.00512861	78.3991
0.00515822	78.6212
0.005188	78.8439
0.00521795	79.0673
0.00524807	79.2914
0.00527837	79.516
0.00530884	79.7414
0.00533949	79.9673
0.00537032	80.194
0.00540132	80.4213
0.0054325	80.6492
0.00546387	80.8778
0.00549541	81.1071
0.00552713	81.3371
0.00555904	81.5677
0.00559114	81.799
0.00562341	82.0309
0.00565588	82.2635
0.00568853	82.4968
0.00572137	82.7308
0.0057544	82.9655
0.00578762	83.2008
0.00582103	83.4368
0.00585464	83.6736
0.00588844	83.9109
0.00592243	84.149
0.00595662	84.3878
0.00599101	84.6273
0.0060256	84.8675
0.00606038	85.1083
0.00609537	85.3499
0.00613056	85.5922
0.00616595	85.8351
0.00620155	86.0788
0.00623735	86.3232
0.00627336	86.5683
0.00630957	86.8141
0.006346	87.0606
0.00638263	87.3079
0.00641948	87.5559
0.00645654	87.8045
0.00649382	88.0539
0.00653131	88.3041
0.00656901	88.5549
0.00660693	88.8065
0.00664508	89.0589
0.00668344	89.3119
0.00672202	89.5657
0.00676083	89.8202
0.00679986	90.0755
0.00683912	90.3315
0.0068786	90.5883
0.00691831	90.8458
0.00695825	91.1041
0.00699842	91.3631
0.00703882	91.6228
0.00707946	91.8834
0.00712033	92.1446
0.00716143	92.4067
0.00720278	92.6695
0.00724436	92.933
0.00728618	93.1974
0.00732825	93.4625
0.00737055	93.7284
0.0074131	93.995
0.0074559	94.2625
0.00749894	94.5307
0.00754223	94.7997
0.00758578	95.0694
0.00762957	95.34
0.00767361	95.6114
0.00771792	95.8835
0.00776247	96.1564
0.00780728	96.4302
0.00785236	96.7047
0.00789769	96.98
0.00794328	97.2562
0.00798914	97.5331
0.00803526	97.8109
0.00808165	98.0894
0.00812831	98.3688
0.00817523	98.649
0.00822243	98.93
0.0082699	99.2118
0.00831764	99.4944
0.00836566	99.7779
0.00841395	100.062
0.00846253	100.347
0.00851138	100.633
0.00856052	100.92
0.00860994	101.208
0.00865964	101.496
0.00870964	101.786
0.00875992	102.076
0.00881049	102.367
0.00886135	102.659
0.00891251	102.951
0.00896396	103.245
0.00901571	103.539
0.00906776	103.835
0.00912011	104.131
0.00917276	104.428
0.00922571	104.726
0.00927897	105.024
0.00933254	105.324
0.00938642	105.624
0.00944061	105.926
0.00949511	106.228
0.00954993	106.531
0.00960506	106.835
0.00966051	107.14
0.00971628	107.446
0.00977237	107.753
0.00982879	108.06
0.00988553	108.369
0.0099426	108.678
0.01	108.988
0.0100577	109.3
0.0101158	109.612
0.0101742	109.925
0.0102329	110.239
0.010292	110.554
0.0103514	110.869
0.0104112	111.186
0.0104713	111.504
0.0105317	111.822
0.0105925	112.142
0.0106537	112.462
0.0107152	112.784
0.0107771	113.106
0.0108393	113.429
0.0109018	113.753
0.0109648	114.079
0.0110281	114.32
0.0110917	114.395
0.0111558	114.472
0.0112202	114.55
0.011285	114.628
0.0113501	114.707
0.0114156	114.787
0.0114815	114.868
0.0115478	114.949
0.0116145	115.031
0.0116815	115.114
0.011749	115.198
0.0118168	115.282
0.011885	115.367
0.0119536	115.453
0.0120226	115.539
0.0120921	115.627
0.0121619	115.714
0.0122321	115.803
0.0123027	115.892
0.0123737	115.982
0.0124451	116.072
0.012517	116.163
0.0125893	116.255
0.0126619	116.347
0.012735	116.44
0.0128086	116.534
0.0128825	116.628
0.0129569	116.722
0.0130317	116.818
0.0131069	116.913
0.0131826	117.01
0.0132587	117.107
0.0133352	117.204
0.0134122	117.302
0.0134896	117.401
0.0135675	117.5
0.0136458	117.6
0.0137246	117.7
0.0138038	117.801
0.0138835	117.902
0.0139637	118.004
0.0140443	118.106
0.0141254	118.209
0.0142069	118.312
0.0142889	118.416
0.0143714	118.52
0.0144544	118.625
0.0145378	118.73
0.0146218	118.836
0.0147062	118.942
0.0147911	119.048
0.0148765	119.155
0.0149624	119.263
0.0150487	119.371
0.0151356	119.479
0.015223	119.588
0.0153109	119.698
0.0153993	119.807
0.0154882	119.918
0.0155776	120.028
0.0156675	120.139
0.015758	120.251
0.0158489	120.363
0.0159404	120.475
0.0160325	120.588
0.016125	120.701
0.0162181	120.815
0.0163117	120.929
0.0164059	121.043
0.0165006	121.158
0.0165959	121.273
0.0166917	121.389
0.016788	121.505
0.016885	121.622
0.0169824	121.738
0.0170805	121.856
0.0171791	121.973
0.0172783	122.092
0.017378	122.21
0.0174783	122.329
0.0175792	122.448
0.0176807	122.568
0.0177828	122.688
0.0178855	122.808
0.0179887	122.929
0.0180926	123.051
0.018197	123.172
0.0183021	123.294
0.0184077	123.417
0.018514	123.539
0.0186209	123.663
0.0187284	123.786
0.0188365	123.91
0.0189452	124.034
0.0190546	124.159
0.0191646	124.284
0.0192752	124.41
0.0193865	124.536
0.0194984	124.662
0.019611	124.789
0.0197242	124.916
0.0198381	125.043
0.0199526	125.171
0.0200678	125.299
0.0201837	125.428
0.0203002	125.557
0.0204174	125.686
0.0205353	125.816
0.0206538	125.946
0.020773	126.077
0.020893	126.208
0.0210136	126.339
0.0211349	126.471
0.0212569	126.603
0.0213796	126.736
0.021503	126.869
0.0216272	127.002
0.021752	127.136
0.0218776	127.27
0.0220039	127.405
0.0221309	127.54
0.0222587	127.675
0.0223872	127.811
0.0225165	127.947
0.0226464	128.084
0.0227772	128.221
0.0229087	128.358
0.0230409	128.496
0.0231739	128.634
0.0233077	128.773
0.0234423	128.912
0.0235776	129.051
0.0237137	129.191
0.0238506	129.332
0.0239883	129.473
0.0241268	129.614
0.0242661	129.756
0.0244062	129.898
0.0245471	130.04
0.0246888	130.183
0.0248313	130.327
0.0249747	130.47
0.0251189	130.615
0.0252639	130.759
0.0254097	130.905
0.0255564	131.05
0.025704	131.196
0.0258523	131.343
0.0260016	131.49
0.0261517	131.637
0.0263027	131.785
0.0264545	131.934
0.0266073	132.083
0.0267609	132.232
0.0269153	132.382
0.0270707	132.532
0.027227	132.683
0.0273842	132.834
0.0275423	132.986
0.0277013	133.138
0.0278612	133.291
0.0280221	133.444
0.0281838	133.598
0.0283465	133.752
0.0285102	133.907
0.0286748	134.062
0.0288403	134.217
0.0290068	134.374
0.0291743	134.53
0.0293427	134.688
0.0295121	134.845
0.0296825	135.004
0.0298538	135.162
0.0300262	135.322
0.0301995	135.482
0.0303739	135.642
0.0305492	135.803
0.0307256	135.964
0.030903	136.126
0.0310814	136.289
0.0312608	136.452
0.0314413	136.616
0.0316228	136.78
0.0318053	136.944
0.031989	137.11
0.0321736	137.276
0.0323594	137.442
0.0325462	137.609
0.0327341	137.777
0.032923	137.945
0.0331131	138.113
0.0333043	138.283
0.0334965	138.453
0.0336899	138.623
0.0338844	138.794
0.03408	138.966
0.0342768	139.138
0.0344747	139.311
0.0346737	139.484
0.0348739	139.658
0.0350752	139.833
0.0352777	140.008
0.0354813	140.184
0.0356862	140.361
0.0358922	140.538
0.0360994	140.716
0.0363078	140.894
0.0365174	141.073
0.0367282	141.253
0.0369403	141.433
0.0371535	141.614
0.037368	141.796
0.0375837	141.978
0.0378007	142.161
0.0380189	142.345
0.0382384	142.529
0.0384592	142.714
0.0386812	142.9
0.0389045	143.086
0.0391291	143.273
0.039355	143.461
0.0395822	143.649
0.0398107	143.838
0.0400405	144.028
0.0402717	144.218
0.0405042	144.409
0.040738	144.601
0.0409732	144.793
0.0412098	144.987
0.0414477	145.18
0.0416869	145.375
0.0419276	145.57
0.0421697	145.767
0.0424131	145.963
0.042658	146.161
0.0429042	146.359
0.0431519	146.558
0.043401	146.758
0.0436516	146.958
0.0439036	147.16
0.044157	147.362
0.044412	147.564
0.0446684	147.768
0.0449262	147.972
0.0451856	148.177
0.0454465	148.383
0.0457088	148.59
0.0459727	148.797
0.0462381	149.005
0.046505	149.214
0.0467735	149.424
0.0470435	149.634
0.0473151	149.846
0.0475883	150.058
0.047863	150.271
0.0481393	150.484
0.0484172	150.699
0.0486968	150.914
0.0489779	151.13
0.0492606	151.347
0.049545	151.565
0.049831	151.784
0.0501187	152.003
0.0504081	152.224
0.0506991	152.445
0.0509918	152.667
0.0512861	152.89
0.0515822	153.113
0.05188	153.338
0.0521795	153.563
0.0524807	153.789
0.0527837	154.016
0.0530884	154.244
0.0533949	154.473
0.0537032	154.703
0.0540132	154.934
0.054325	155.165
0.0546387	155.398
0.0549541	155.631
0.0552713	155.865
0.0555904	156.1
0.0559114	156.336
0.0562341	156.573
0.0565588	156.811
0.0568853	157.049
0.0572137	157.289
0.057544	157.529
0.0578762	157.771
0.0582103	158.013
0.0585464	158.257
0.0588844	158.501
0.0592243	158.746
0.0595662	158.992
0.0599101	159.239
0.060256	159.487
0.0606038	159.736
0.0609537	159.986
0.0613056	160.237
0.0616595	160.489
0.0620155	160.741
0.0623735	160.995
0.0627336	161.25
0.0630957	161.506
0.06346	161.762
0.0638263	162.02
0.0641948	162.279
0.0645654	162.538
0.0649382	162.799
0.0653131	163.061
0.0656901	163.323
0.0660693	163.587
0.0664508	163.851
0.0668344	164.117
0.0672202	164.384
0.0676083	164.651
0.0679986	164.92
0.0683912	165.19
0.068786	165.461
0.0691831	165.732
0.0695825	166.005
0.0699842	166.279
0.0703882	166.554
0.0707946	166.83
0.0712033	167.107
0.0716143	167.385
0.0720278	167.664
0.0724436	167.944
0.0728618	168.226
0.0732825	168.508
0.0737055	168.791
0.074131	169.076
0.074559	169.361
0.0749894	169.648
0.0754223	169.936
0.0758578	170.224
0.0762957	170.514
0.0767361	170.805
0.0771792	171.097
0.0776247	171.39
0.0780728	171.684
0.0785236	171.98
0.0789769	172.276
0.0794328	172.574
0.0798914	172.872
0.0803526	173.172
0.0808165	173.473
0.0812831	173.775
0.0817523	174.078
0.0822243	174.383
0.082699	174.688
0.0831764	174.995
0.0836566	175.302
0.0841395	175.611
0.0846253	175.921
0.0851138	176.232
0.0856052	176.545
0.0860994	176.858
0.0865964	177.173
0.0870964	177.489
0.0875992	177.805
0.0881049	178.124
0.0886135	178.443
0.0891251	178.763
0.0896396	179.085
0.0901571	179.408
0.0906776	179.732
0.0912011	180.057
0.0917276	180.383
0.0922571	180.711
0.0927897	181.04
0.0933254	181.369
0.0938642	181.701
0.0944061	182.033
0.0949511	182.366
0.0954993	182.701
0.0960506	183.037
0.0966051	183.374
0.0971628	183.713
0.0977237	184.052
0.0982879	184.393
0.0988553	184.735
0.099426	185.078
0.1	185.423
0.100577	185.769
0.101158	186.116
0.101742	186.464
0.102329	186.813
0.10292	187.164
0.103514	187.516
0.104112	187.869
0.104713	188.224
0.105317	188.579
0.105925	188.936
0.106537	189.294
0.107152	189.654
0.107771	190.014
0.108393	190.376
0.109018	190.74
0.109648	191.104
0.110281	191.47
0.110917	191.837
0.111558	192.205
0.112202	192.575
0.11285	192.946
0.113501	193.318
0.114156	193.691
0.114815	194.066
0.115478	194.442
0.116145	194.819
0.116815	195.198
0.11749	195.578
0.118168	195.959
0.11885	196.341
0.119536	196.725
0.120226	197.11
0.120921	197.496
0.121619	197.884
0.122321	198.273
0.123027	198.663
0.123737	199.055
0.124451	199.448
0.12517	199.842
0.125893	200.237
0.126619	200.634
0.12735	201.032
0.128086	201.432
0.128825	201.832
0.129569	202.234
0.130317	202.638
0.131069	203.043
0.131826	203.449
0.132587	203.856
0.133352	204.265
0.134122	204.675
0.134896	205.086
0.135675	205.499
0.136458	205.913
0.137246	206.328
0.138038	206.744
0.138835	207.162
0.139637	207.582
0.140443	208.002
0.141254	208.424
0.142069	208.848
0.142889	209.272
0.143714	209.698
0.144544	210.125
0.145378	210.761
0.146218	211.403
0.147062	212.049
0.147911	212.698
0.148765	213.352
0.149624	214.009
0.150487	214.67
0.151356	215.335
0.15223	216.003
0.153109	216.676
0.153993	217.352
0.154882	218.032
0.155776	218.716
0.156675	219.404
0.15758	220.097
0.158489	220.793
0.159404	221.493
0.160325	222.197
0.16125	222.906
0.162181	223.618
0.163117	224.335
0.164059	225.056
0.165006	225.781
0.165959	226.51
0.166917	227.244
0.16788	227.982
0.16885	228.724
0.169824	229.47
0.170805	230.221
0.171791	230.977
0.172783	231.737
0.17378	232.501
0.174783	233.27
0.175792	234.044
0.176807	234.822
0.177828	235.604
0.178855	236.392
0.179887	237.184
0.180926	237.98
0.18197	238.782
0.183021	239.588
0.184077	240.399
0.18514	241.215
0.186209	242.036
0.187284	242.861
0.188365	243.692
0.189452	244.527
0.190546	245.368
0.191646	246.214
0.192752	247.065
0.193865	247.92
0.194984	248.782
0.19611	249.648
0.197242	250.519
0.198381	251.396
0.199526	252.278
0.200678	253.166
0.201837	254.058
0.203002	254.957
0.204174	255.86
0.205353	256.77
0.206538	257.684
0.20773	258.605
0.20893	259.531
0.210136	260.462
0.211349	261.4
0.212569	262.343
0.213796	263.292
0.21503	264.247
0.216272	265.207
0.21752	266.174
0.218776	267.146
0.220039	268.125
0.221309	269.109
0.222587	270.1
0.223872	271.096
0.225165	272.099
0.226464	273.108
0.227772	274.124
0.229087	275.145
0.230409	276.173
0.231739	277.208
0.233077	278.249
0.234423	279.296
0.235776	280.35
0.237137	281.411
0.238506	282.478
0.239883	283.552
0.241268	284.632
0.242661	285.72
0.244062	286.814
0.245471	287.915
0.246888	289.023
0.248313	290.138
0.249747	291.26
0.251189	292.389
0.252639	293.525
0.254097	294.669
0.255564	295.82
0.25704	296.978
0.258523	298.143
0.260016	299.316
0.261517	300.496
0.263027	301.684
0.264545	302.879
0.266073	304.082
0.267609	305.293
0.269153	306.511
0.270707	307.737
0.27227	308.971
0.273842	310.213
0.275423	311.463
0.277013	312.671
0.278612	313.768
0.280221	314.869
0.281838	315.976
0.283465	317.087
0.285102	318.203
0.286748	319.325
0.288403	320.451
0.290068	321.582
0.291743	322.719
0.293427	323.86
0.295121	325.007
0.296825	326.158
0.298538	327.315
0.300262	328.476
0.301995	329.643
0.303739	330.815
0.305492	331.991
0.307256	333.173
0.30903	334.36
0.310814	335.552
0.312608	336.749
0.314413	337.952
0.316228	339.159
0.318053	340.372
0.31989	341.589
0.321736	342.812
0.323594	344.04
0.325462	345.273
0.327341	346.511
0.32923	347.755
0.331131	349.003
0.333043	350.257
0.334965	351.516
0.336899	352.78
0.338844	354.049
0.3408	355.323
0.342768	356.603
0.344747	357.887
0.346737	359.177
0.348739	360.472
0.350752	361.772
0.352777	363.077
0.354813	364.388
0.356862	365.704
0.358922	367.024
0.360994	368.35
0.363078	369.682
0.365174	371.018
0.367282	372.359
0.369403	373.706
0.371535	375.058
0.37368	376.415
0.375837	377.777
0.378007	379.144
0.380189	380.516
0.382384	381.894
0.384592	383.276
0.386812	384.664
0.389045	386.057
0.391291	387.454
0.39355	388.857
0.395822	390.266
0.398107	391.679
0.400405	393.097
0.402717	394.52
0.405042	395.948
0.40738	397.382
0.409732	398.82
0.412098	400.264
0.414477	401.712
0.416869	403.165
0.419276	404.624
0.421697	406.087
0.424131	407.555
0.42658	409.029
0.429042	410.507
0.431519	411.99
0.43401	413.478
0.436516	414.971
0.439036	416.468
0.44157	417.971
0.44412	419.478
0.446684	420.99
0.449262	422.507
0.451856	424.029
0.454465	425.555
0.457088	427.087
0.459727	428.622
0.462381	430.163
0.46505	431.708
0.467735	433.258
0.470435	434.812
0.473151	436.371
0.475883	437.935
0.47863	439.503
0.481393	441.076
0.484172	442.653
0.486968	444.234
0.489779	445.82
0.492606	447.411
0.49545	449.005
0.49831	450.604
0.501187	452.208
0.504081	453.815
0.506991	455.427
0.509918	457.043
0.512861	458.664
0.515822	460.288
0.5188	461.916
0.521795	463.549
0.524807	465.185
0.527837	466.826
0.530884	468.47
0.533949	470.119
0.537032	471.771
0.540132	473.427
0.54325	475.087
0.546387	476.751
0.549541	478.418
0.552713	480.089
0.555904	481.764
0.559114	483.442
0.562341	485.124
0.565588	486.809
0.568853	488.498
0.572137	490.19
0.57544	491.885
0.578762	493.584
0.582103	495.286
0.585464	496.991
0.588844	498.699
0.592243	500.41
0.595662	502.125
0.599101	503.842
0.60256	505.562
0.606038	507.285
