Stopping power dEdx from Ionisation for C12[0.0] Z = 6 in G4_Si, process name: ionIoni
E [MeV]	dEdx [MeV/mm]
0.001	32.0877
0.00100577	32.1809
0.00101158	32.2744
0.00101742	32.3682
0.00102329	32.4623
0.0010292	32.5566
0.00103514	32.6512
0.00104112	32.7461
0.00104713	32.8412
0.00105317	32.9366
0.00105925	33.0323
0.00106537	33.1283
0.00107152	33.2245
0.00107771	33.321
0.00108393	33.4178
0.00109018	33.5149
0.00109648	33.6123
0.00110281	33.7099
0.00110917	33.8078
0.00111558	33.906
0.00112202	34.0045
0.0011285	34.1033
0.00113501	34.2023
0.00114156	34.3017
0.00114815	34.4013
0.00115478	34.5012
0.00116145	34.6014
0.00116815	34.7019
0.0011749	34.8027
0.00118168	34.9037
0.0011885	35.0051
0.00119536	35.1067
0.00120226	35.2087
0.00120921	35.3109
0.00121619	35.4135
0.00122321	35.5163
0.00123027	35.6194
0.00123737	35.7228
0.00124451	35.8266
0.0012517	35.9306
0.00125893	36.0349
0.00126619	36.1395
0.0012735	36.2444
0.00128086	36.3497
0.00128825	36.4552
0.00129569	36.561
0.00130317	36.6672
0.00131069	36.7736
0.00131826	36.8803
0.00132587	36.9874
0.00133352	37.0948
0.00134122	37.2024
0.00134896	37.3104
0.00135675	37.4187
0.00136458	37.5273
0.00137246	37.6363
0.00138038	37.7455
0.00138835	37.855
0.00139637	37.9649
0.00140443	38.0751
0.00141254	38.1856
0.00142069	38.2964
0.00142889	38.4076
0.00143714	38.519
0.00144544	38.6308
0.00145378	38.7429
0.00146218	38.8553
0.00147062	38.9681
0.00147911	39.0811
0.00148765	39.1945
0.00149624	39.3083
0.00150487	39.4223
0.00151356	39.5367
0.0015223	39.6514
0.00153109	39.7665
0.00153993	39.8818
0.00154882	39.9976
0.00155776	40.1136
0.00156675	40.23
0.0015758	40.3467
0.00158489	40.4637
0.00159404	40.5811
0.00160325	40.6988
0.0016125	40.8169
0.00162181	40.9353
0.00163117	41.0541
0.00164059	41.1731
0.00165006	41.2926
0.00165959	41.4123
0.00166917	41.5325
0.0016788	41.6529
0.0016885	41.7737
0.00169824	41.8949
0.00170805	42.0164
0.00171791	42.1383
0.00172783	42.2605
0.0017378	42.3831
0.00174783	42.506
0.00175792	42.6293
0.00176807	42.7529
0.00177828	42.8769
0.00178855	43.0012
0.00179887	43.1259
0.00180926	43.251
0.0018197	43.3764
0.00183021	43.5022
0.00184077	43.6283
0.0018514	43.7548
0.00186209	43.8817
0.00187284	44.0089
0.00188365	44.1365
0.00189452	44.2645
0.00190546	44.3928
0.00191646	44.5216
0.00192752	44.6506
0.00193865	44.7801
0.00194984	44.9099
0.0019611	45.0401
0.00197242	45.1707
0.00198381	45.3016
0.00199526	45.433
0.00200678	45.5647
0.00201837	45.6968
0.00203002	45.8292
0.00204174	45.9621
0.00205353	46.0953
0.00206538	46.229
0.0020773	46.363
0.0020893	46.4973
0.00210136	46.6321
0.00211349	46.7673
0.00212569	46.9028
0.00213796	47.0388
0.0021503	47.1751
0.00216272	47.3119
0.0021752	47.449
0.00218776	47.5865
0.00220039	47.7244
0.00221309	47.8627
0.00222587	48.0014
0.00223872	48.1406
0.00225165	48.2801
0.00226464	48.42
0.00227772	48.5603
0.00229087	48.701
0.00230409	48.8422
0.00231739	48.9837
0.00233077	49.1256
0.00234423	49.268
0.00235776	49.4107
0.00237137	49.5539
0.00238506	49.6975
0.00239883	49.8415
0.00241268	49.9859
0.00242661	50.1308
0.00244062	50.276
0.00245471	50.4217
0.00246888	50.5678
0.00248313	50.7143
0.00249747	50.8612
0.00251189	51.0086
0.00252639	51.1563
0.00254097	51.3045
0.00255564	51.4532
0.0025704	51.6022
0.00258523	51.7517
0.00260016	51.9017
0.00261517	52.052
0.00263027	52.2028
0.00264545	52.354
0.00266073	52.5057
0.00267609	52.6578
0.00269153	52.8103
0.00270707	52.9633
0.0027227	53.1167
0.00273842	53.2706
0.00275423	53.4249
0.00277013	53.5796
0.00278612	53.7348
0.00280221	53.8904
0.00281838	54.0465
0.00283465	54.203
0.00285102	54.36
0.00286748	54.5175
0.00288403	54.6754
0.00290068	54.8337
0.00291743	54.9925
0.00293427	55.1518
0.00295121	55.3115
0.00296825	55.4717
0.00298538	55.6323
0.00300262	55.7934
0.00301995	55.955
0.00303739	56.1171
0.00305492	56.2796
0.00307256	56.4425
0.0030903	56.606
0.00310814	56.7699
0.00312608	56.9343
0.00314413	57.0991
0.00316228	57.2645
0.00318053	57.4303
0.0031989	57.5966
0.00321736	57.7633
0.00323594	57.9306
0.00325462	58.0983
0.00327341	58.2665
0.0032923	58.4352
0.00331131	58.6044
0.00333043	58.7741
0.00334965	58.9443
0.00336899	59.1149
0.00338844	59.2861
0.003408	59.4577
0.00342768	59.6298
0.00344747	59.8025
0.00346737	59.9756
0.00348739	60.1492
0.00350752	60.3233
0.00352777	60.498
0.00354813	60.6731
0.00356862	60.8487
0.00358922	61.0249
0.00360994	61.2015
0.00363078	61.3787
0.00365174	61.5564
0.00367282	61.7346
0.00369403	61.9132
0.00371535	62.0925
0.0037368	62.2722
0.00375837	62.4524
0.00378007	62.6332
0.00380189	62.8145
0.00382384	62.9963
0.00384592	63.1786
0.00386812	63.3615
0.00389045	63.5449
0.00391291	63.7288
0.0039355	63.9132
0.00395822	64.0982
0.00398107	64.2837
0.00400405	64.4698
0.00402717	64.6563
0.00405042	64.8435
0.0040738	65.0311
0.00409732	65.2193
0.00412098	65.4081
0.00414477	65.5973
0.00416869	65.7872
0.00419276	65.9775
0.00421697	66.1685
0.00424131	66.36
0.0042658	66.552
0.00429042	66.7446
0.00431519	66.9377
0.0043401	67.1314
0.00436516	67.3256
0.00439036	67.5205
0.0044157	67.7158
0.0044412	67.9118
0.00446684	68.1083
0.00449262	68.3053
0.00451856	68.503
0.00454465	68.7012
0.00457088	68.9
0.00459727	69.0993
0.00462381	69.2992
0.0046505	69.4997
0.00467735	69.7008
0.00470435	69.9025
0.00473151	70.1047
0.00475883	70.3075
0.0047863	70.5109
0.00481393	70.7149
0.00484172	70.9195
0.00486968	71.1247
0.00489779	71.3304
0.00492606	71.5368
0.0049545	71.7437
0.0049831	71.9513
0.00501187	72.1594
0.00504081	72.3682
0.00506991	72.5775
0.00509918	72.7875
0.00512861	72.998
0.00515822	73.2092
0.005188	73.421
0.00521795	73.6333
0.00524807	73.8463
0.00527837	74.0599
0.00530884	74.2742
0.00533949	74.489
0.00537032	74.7045
0.00540132	74.9206
0.0054325	75.1373
0.00546387	75.3546
0.00549541	75.5725
0.00552713	75.7911
0.00555904	76.0103
0.00559114	76.2302
0.00562341	76.4507
0.00565588	76.6718
0.00568853	76.8935
0.00572137	77.1159
0.0057544	77.3389
0.00578762	77.5626
0.00582103	77.7869
0.00585464	78.0119
0.00588844	78.2375
0.00592243	78.4638
0.00595662	78.6907
0.00599101	78.9183
0.0060256	79.1465
0.00606038	79.3754
0.00609537	79.6049
0.00613056	79.8351
0.00616595	80.066
0.00620155	80.2975
0.00623735	80.5297
0.00627336	80.7626
0.00630957	80.9961
0.006346	81.2304
0.00638263	81.4653
0.00641948	81.7008
0.00645654	81.9371
0.00649382	82.174
0.00653131	82.4116
0.00656901	82.6499
0.00660693	82.8889
0.00664508	83.1286
0.00668344	83.3689
0.00672202	83.61
0.00676083	83.8517
0.00679986	84.0942
0.00683912	84.3373
0.0068786	84.5812
0.00691831	84.8257
0.00695825	85.071
0.00699842	85.3169
0.00703882	85.5636
0.00707946	85.811
0.00712033	86.0591
0.00716143	86.3079
0.00720278	86.5574
0.00724436	86.8076
0.00728618	87.0586
0.00732825	87.3103
0.00737055	87.5627
0.0074131	87.8159
0.0074559	88.0697
0.00749894	88.3243
0.00754223	88.5797
0.00758578	88.8357
0.00762957	89.0926
0.00767361	89.3501
0.00771792	89.6084
0.00776247	89.8674
0.00780728	90.1272
0.00785236	90.3878
0.00789769	90.6491
0.00794328	90.9111
0.00798914	91.1739
0.00803526	91.4374
0.00808165	91.7017
0.00812831	91.9668
0.00817523	92.2327
0.00822243	92.4993
0.0082699	92.7666
0.00831764	93.0348
0.00836566	93.3037
0.00841395	93.5734
0.00846253	93.8439
0.00851138	94.1151
0.00856052	94.3871
0.00860994	94.6599
0.00865964	94.9335
0.00870964	95.2079
0.00875992	95.4831
0.00881049	95.7591
0.00886135	96.0358
0.00891251	96.3134
0.00896396	96.5918
0.00901571	96.8709
0.00906776	97.1509
0.00912011	97.4317
0.00917276	97.7133
0.00922571	97.9957
0.00927897	98.2789
0.00933254	98.5629
0.00938642	98.8478
0.00944061	99.1335
0.00949511	99.4199
0.00954993	99.7073
0.00960506	99.9954
0.00966051	100.284
0.00971628	100.574
0.00977237	100.865
0.00982879	101.156
0.00988553	101.449
0.0099426	101.742
0.01	102.036
0.0100577	102.331
0.0101158	102.626
0.0101742	102.923
0.0102329	103.22
0.010292	103.519
0.0103514	103.818
0.0104112	104.118
0.0104713	104.68
0.0105317	104.982
0.0105925	105.285
0.0106537	105.588
0.0107152	105.892
0.0107771	106.198
0.0108393	106.504
0.0109018	106.811
0.0109648	107.119
0.0110281	107.427
0.0110917	107.737
0.0111558	108.048
0.0112202	108.359
0.011285	108.671
0.0113501	108.985
0.0114156	109.299
0.0114815	109.614
0.0115478	109.93
0.0116145	110.247
0.0116815	110.564
0.011749	110.883
0.0118168	111.203
0.011885	111.523
0.0119536	111.845
0.0120226	112.167
0.0120921	112.49
0.0121619	112.814
0.0122321	113.14
0.0123027	113.466
0.0123737	113.793
0.0124451	114.121
0.012517	114.45
0.0125893	114.78
0.0126619	115.11
0.012735	115.442
0.0128086	115.775
0.0128825	116.109
0.0129569	116.443
0.0130317	116.779
0.0131069	117.116
0.0131826	117.453
0.0132587	117.792
0.0133352	118.131
0.0134122	118.472
0.0134896	118.813
0.0135675	119.156
0.0136458	119.499
0.0137246	119.844
0.0138038	120.189
0.0138835	120.535
0.0139637	120.883
0.0140443	121.231
0.0141254	121.581
0.0142069	121.931
0.0142889	122.283
0.0143714	122.635
0.0144544	122.989
0.0145378	123.343
0.0146218	123.699
0.0147062	124.055
0.0147911	124.413
0.0148765	124.771
0.0149624	125.131
0.0150487	125.492
0.0151356	125.853
0.015223	126.216
0.0153109	126.58
0.0153993	126.945
0.0154882	127.311
0.0155776	127.678
0.0156675	128.046
0.015758	128.415
0.0158489	128.785
0.0159404	129.156
0.0160325	129.528
0.016125	129.902
0.0162181	130.276
0.0163117	130.652
0.0164059	131.028
0.0165006	131.406
0.0165959	131.785
0.0166917	132.165
0.016788	132.545
0.016885	132.928
0.0169824	133.311
0.0170805	133.695
0.0171791	134.08
0.0172783	134.467
0.017378	134.854
0.0174783	135.243
0.0175792	135.633
0.0176807	136.024
0.0177828	136.416
0.0178855	136.809
0.0179887	137.203
0.0180926	137.599
0.018197	137.995
0.0183021	138.393
0.0184077	138.792
0.018514	139.192
0.0186209	139.593
0.0187284	139.996
0.0188365	140.399
0.0189452	140.804
0.0190546	141.21
0.0191646	141.617
0.0192752	142.025
0.0193865	142.434
0.0194984	142.845
0.019611	143.257
0.0197242	143.67
0.0198381	144.084
0.0199526	144.499
0.0200678	144.916
0.0201837	145.333
0.0203002	145.752
0.0204174	146.172
0.0205353	146.594
0.0206538	147.016
0.020773	147.44
0.020893	147.865
0.0210136	148.291
0.0211349	148.718
0.0212569	149.147
0.0213796	149.577
0.021503	150.008
0.0216272	150.441
0.021752	150.874
0.0218776	151.309
0.0220039	151.745
0.0221309	152.183
0.0222587	152.621
0.0223872	153.061
0.0225165	153.502
0.0226464	153.945
0.0227772	154.388
0.0229087	154.833
0.0230409	155.28
0.0231739	155.727
0.0233077	156.176
0.0234423	156.626
0.0235776	157.078
0.0237137	157.531
0.0238506	157.985
0.0239883	158.44
0.0241268	158.897
0.0242661	159.355
0.0244062	159.814
0.0245471	160.275
0.0246888	160.737
0.0248313	161.2
0.0249747	161.665
0.0251189	162.131
0.0252639	162.598
0.0254097	163.067
0.0255564	163.537
0.025704	164.008
0.0258523	164.481
0.0260016	164.955
0.0261517	165.43
0.0263027	165.907
0.0264545	166.385
0.0266073	166.865
0.0267609	167.346
0.0269153	167.828
0.0270707	168.312
0.027227	168.797
0.0273842	169.284
0.0275423	169.772
0.0277013	170.261
0.0278612	170.752
0.0280221	171.244
0.0281838	171.737
0.0283465	172.232
0.0285102	172.729
0.0286748	173.227
0.0288403	173.726
0.0290068	174.227
0.0291743	174.729
0.0293427	175.233
0.0295121	175.738
0.0296825	176.244
0.0298538	176.752
0.0300262	177.262
0.0301995	177.773
0.0303739	178.285
0.0305492	178.799
0.0307256	179.314
0.030903	179.831
0.0310814	180.349
0.0312608	180.869
0.0314413	181.391
0.0316228	181.913
0.0318053	182.438
0.031989	182.964
0.0321736	183.491
0.0323594	184.02
0.0325462	184.55
0.0327341	185.082
0.032923	185.616
0.0331131	186.151
0.0333043	186.687
0.0334965	187.225
0.0336899	187.765
0.0338844	188.306
0.03408	188.849
0.0342768	189.393
0.0344747	189.939
0.0346737	190.487
0.0348739	191.036
0.0350752	191.586
0.0352777	192.139
0.0354813	192.693
0.0356862	193.248
0.0358922	193.805
0.0360994	194.364
0.0363078	194.924
0.0365174	195.486
0.0367282	196.049
0.0369403	196.614
0.0371535	197.181
0.037368	197.749
0.0375837	198.319
0.0378007	198.891
0.0380189	199.464
0.0382384	200.039
0.0384592	200.616
0.0386812	201.194
0.0389045	201.774
0.0391291	202.355
0.039355	202.939
0.0395822	203.524
0.0398107	204.11
0.0400405	204.699
0.0402717	205.289
0.0405042	205.88
0.040738	206.474
0.0409732	207.069
0.0412098	207.666
0.0414477	208.264
0.0416869	208.865
0.0419276	209.467
0.0421697	210.07
0.0424131	210.676
0.042658	211.283
0.0429042	211.892
0.0431519	212.503
0.043401	213.115
0.0436516	213.73
0.0439036	214.346
0.044157	214.964
0.044412	215.583
0.0446684	216.205
0.0449262	216.828
0.0451856	217.453
0.0454465	218.08
0.0457088	218.708
0.0459727	219.338
0.0462381	219.971
0.046505	220.605
0.0467735	221.241
0.0470435	221.878
0.0473151	222.518
0.0475883	223.159
0.047863	223.802
0.0481393	224.448
0.0484172	225.094
0.0486968	225.743
0.0489779	226.394
0.0492606	227.047
0.049545	227.701
0.049831	228.357
0.0501187	229.015
0.0504081	229.676
0.0506991	230.338
0.0509918	231.002
0.0512861	231.667
0.0515822	232.335
0.05188	233.005
0.0521795	233.676
0.0524807	234.35
0.0527837	235.025
0.0530884	235.703
0.0533949	236.382
0.0537032	237.064
0.0540132	237.747
0.054325	238.432
0.0546387	239.119
0.0549541	239.809
0.0552713	240.5
0.0555904	241.193
0.0559114	241.888
0.0562341	242.586
0.0565588	243.285
0.0568853	243.986
0.0572137	244.689
0.057544	245.395
0.0578762	246.102
0.0582103	246.811
0.0585464	247.523
0.0588844	248.236
0.0592243	248.952
0.0595662	249.669
0.0599101	250.389
0.060256	251.11
0.0606038	251.834
0.0609537	252.56
0.0613056	253.288
0.0616595	254.018
0.0620155	254.75
0.0623735	255.485
0.0627336	256.221
0.0630957	256.96
0.06346	257.7
0.0638263	258.443
0.0641948	259.188
0.0645654	259.935
0.0649382	260.684
0.0653131	261.436
0.0656901	262.189
0.0660693	262.945
0.0664508	263.703
0.0668344	264.463
0.0672202	265.225
0.0676083	265.99
0.0679986	266.756
0.0683912	267.525
0.068786	268.296
0.0691831	269.07
0.0695825	269.845
0.0699842	270.623
0.0703882	271.403
0.0707946	272.185
0.0712033	272.97
0.0716143	273.757
0.0720278	274.546
0.0724436	275.337
0.0728618	276.131
0.0732825	276.927
0.0737055	277.725
0.074131	278.525
0.074559	279.328
0.0749894	280.133
0.0754223	280.941
0.0758578	281.751
0.0762957	282.563
0.0767361	283.377
0.0771792	284.194
0.0776247	285.013
0.0780728	285.835
0.0785236	286.659
0.0789769	287.485
0.0794328	288.313
0.0798914	289.144
0.0803526	289.978
0.0808165	290.814
0.0812831	291.652
0.0817523	292.493
0.0822243	293.336
0.082699	294.181
0.0831764	295.029
0.0836566	295.879
0.0841395	296.732
0.0846253	297.588
0.0851138	298.445
0.0856052	299.306
0.0860994	300.168
0.0865964	301.034
0.0870964	301.901
0.0875992	302.771
0.0881049	303.644
0.0886135	304.519
0.0891251	305.397
0.0896396	306.277
0.0901571	307.16
0.0906776	308.045
0.0912011	308.933
0.0917276	309.824
0.0922571	310.717
0.0927897	311.612
0.0933254	312.511
0.0938642	313.411
0.0944061	314.315
0.0949511	315.221
0.0954993	316.129
0.0960506	317.041
0.0966051	317.954
0.0971628	318.871
0.0977237	319.79
0.0982879	320.712
0.0988553	321.636
0.099426	322.563
0.1	323.493
0.100577	324.425
0.101158	325.361
0.101742	326.298
0.102329	327.239
0.10292	328.182
0.103514	329.128
0.104112	330.077
0.104713	331.028
0.105317	331.982
0.105925	332.939
0.106537	333.899
0.107152	334.861
0.107771	335.826
0.108393	336.794
0.109018	337.765
0.109648	338.739
0.110281	339.715
0.110917	340.694
0.111558	341.676
0.112202	342.661
0.11285	343.649
0.113501	344.639
0.114156	345.633
0.114815	346.629
0.115478	347.628
0.116145	348.63
0.116815	349.635
0.11749	350.643
0.118168	351.653
0.11885	352.667
0.119536	353.684
0.120226	354.703
0.120921	355.725
0.121619	356.751
0.122321	357.779
0.123027	358.81
0.123737	359.844
0.124451	360.882
0.12517	361.922
0.125893	362.965
0.126619	364.011
0.12735	365.061
0.128086	366.113
0.128825	367.168
0.129569	368.226
0.130317	369.288
0.131069	370.352
0.131826	371.42
0.132587	372.49
0.133352	373.564
0.134122	374.641
0.134896	375.72
0.135675	376.803
0.136458	377.89
0.137246	378.979
0.138038	380.071
0.138835	381.167
0.139637	382.265
0.140443	383.367
0.141254	384.472
0.142069	385.58
0.142889	386.692
0.143714	387.806
0.144544	388.924
0.145378	390.045
0.146218	391.169
0.147062	392.297
0.147911	393.428
0.148765	394.562
0.149624	395.699
0.150487	396.839
0.151356	397.983
0.15223	399.13
0.153109	400.281
0.153993	401.435
0.154882	402.592
0.155776	403.752
0.156675	404.916
0.15758	406.083
0.158489	407.254
0.159404	408.427
0.160325	409.605
0.16125	410.785
0.162181	411.969
0.163117	413.157
0.164059	414.348
0.165006	415.542
0.165959	416.74
0.166917	417.941
0.16788	419.146
0.16885	420.354
0.169824	421.565
0.170805	422.78
0.171791	423.999
0.172783	425.221
0.17378	426.447
0.174783	427.676
0.175792	428.909
0.176807	430.145
0.177828	431.385
0.178855	432.628
0.179887	433.875
0.180926	435.126
0.18197	436.38
0.183021	437.638
0.184077	438.899
0.18514	440.164
0.186209	441.433
0.187284	442.705
0.188365	443.981
0.189452	445.261
0.190546	446.545
0.191646	447.832
0.192752	449.123
0.193865	450.417
0.194984	451.715
0.19611	453.017
0.197242	454.323
0.198381	455.633
0.199526	456.946
0.200678	458.263
0.201837	459.584
0.203002	460.909
0.204174	462.237
0.205353	463.57
0.206538	464.906
0.20773	466.246
0.20893	467.59
0.210136	468.937
0.211349	470.289
0.212569	471.645
0.213796	473.004
0.21503	474.367
0.216272	475.735
0.21752	477.106
0.218776	478.481
0.220039	479.86
0.221309	481.243
0.222587	482.631
0.223872	484.022
0.225165	485.417
0.226464	486.816
0.227772	488.219
0.229087	489.626
0.230409	491.038
0.231739	492.453
0.233077	493.873
0.234423	495.296
0.235776	496.724
0.237137	498.155
0.238506	499.591
0.239883	501.031
0.241268	502.475
0.242661	503.924
0.244062	505.376
0.245471	506.833
0.246888	508.294
0.248313	509.759
0.249747	511.228
0.251189	512.702
0.252639	514.18
0.254097	515.662
0.255564	517.148
0.25704	518.639
0.258523	520.134
0.260016	521.633
0.261517	523.136
0.263027	524.644
0.264545	526.156
0.266073	527.673
0.267609	529.194
0.269153	530.719
0.270707	532.249
0.27227	533.783
0.273842	535.322
0.275423	536.865
0.277013	538.412
0.278612	539.964
0.280221	541.52
0.281838	543.081
0.283465	544.647
0.285102	546.217
0.286748	547.791
0.288403	549.37
0.290068	550.953
0.291743	552.541
0.293427	554.134
0.295121	555.731
0.296825	557.333
0.298538	558.94
0.300262	560.593
0.301995	562.492
0.303739	564.404
0.305492	566.327
0.307256	568.262
0.30903	570.209
0.310814	572.167
0.312608	574.138
0.314413	576.121
0.316228	578.115
0.318053	580.122
0.31989	582.14
0.321736	584.17
0.323594	586.213
0.325462	588.267
0.327341	590.333
0.32923	592.411
0.331131	594.501
0.333043	596.603
0.334965	598.717
0.336899	600.842
0.338844	602.98
0.3408	605.129
0.342768	607.29
0.344747	609.463
0.346737	611.647
0.348739	613.843
0.350752	616.051
0.352777	618.271
0.354813	620.502
0.356862	622.745
0.358922	624.999
0.360994	627.21
0.363078	629.372
0.365174	631.545
0.367282	633.728
0.369403	635.922
0.371535	638.126
0.37368	640.341
0.375837	642.566
0.378007	644.801
0.380189	647.046
0.382384	649.302
0.384592	651.567
0.386812	653.842
0.389045	656.127
0.391291	658.421
0.39355	660.725
0.395822	663.038
0.398107	665.36
0.400405	667.692
0.402717	670.032
0.405042	672.381
0.40738	674.739
0.409732	677.105
0.412098	679.48
0.414477	681.862
0.416869	684.253
0.419276	686.652
0.421697	689.058
0.424131	691.472
0.42658	693.892
0.429042	696.32
0.431519	698.755
0.43401	701.196
0.436516	703.644
0.439036	706.097
0.44157	708.557
0.44412	711.022
0.446684	713.493
0.449262	715.968
0.451856	718.449
0.454465	720.934
0.457088	723.423
0.459727	725.916
0.462381	728.413
0.46505	730.913
0.467735	733.416
0.470435	735.921
0.473151	738.429
0.475883	740.939
0.47863	743.45
0.481393	745.947
0.484172	748.43
0.486968	750.913
0.489779	753.397
0.492606	755.881
0.49545	758.365
0.49831	760.85
0.501187	763.334
0.504081	765.818
0.506991	768.302
0.509918	770.785
0.512861	773.268
0.515822	775.751
0.5188	778.232
0.521795	780.712
0.524807	783.192
0.527837	785.67
0.530884	788.147
0.533949	790.622
0.537032	793.095
0.540132	795.567
0.54325	798.036
0.546387	800.504
0.549541	802.969
0.552713	805.431
0.555904	807.891
0.559114	810.349
0.562341	812.803
0.565588	815.254
0.568853	817.702
0.572137	820.146
0.57544	822.587
0.578762	825.024
0.582103	827.457
0.585464	829.886
0.588844	832.31
0.592243	834.731
0.595662	837.146
0.599101	839.556
0.60256	841.96
0.606038	844.358
0.609537	846.75
