Stopping power dEdx from Ionisation for Ca40[0.0] Z = 20 in G4_Si, process name: ionIoni
E [MeV]	dEdx [MeV/mm]
0.001	30.117
0.00100577	30.2045
0.00101158	30.2922
0.00101742	30.3802
0.00102329	30.4685
0.0010292	30.5569
0.00103514	30.6457
0.00104112	30.7347
0.00104713	30.8239
0.00105317	30.9134
0.00105925	31.0032
0.00106537	31.0932
0.00107152	31.1835
0.00107771	31.2741
0.00108393	31.3649
0.00109018	31.4559
0.00109648	31.5473
0.00110281	31.6389
0.00110917	31.7307
0.00111558	31.8228
0.00112202	31.9152
0.0011285	32.0079
0.00113501	32.1008
0.00114156	32.194
0.00114815	32.2875
0.00115478	32.3812
0.00116145	32.4752
0.00116815	32.5695
0.0011749	32.664
0.00118168	32.7588
0.0011885	32.8539
0.00119536	32.9493
0.00120226	33.0449
0.00120921	33.1408
0.00121619	33.237
0.00122321	33.3335
0.00123027	33.4302
0.00123737	33.5272
0.00124451	33.6245
0.0012517	33.7221
0.00125893	33.82
0.00126619	33.9181
0.0012735	34.0165
0.00128086	34.1153
0.00128825	34.2143
0.00129569	34.3135
0.00130317	34.4131
0.00131069	34.513
0.00131826	34.6131
0.00132587	34.7135
0.00133352	34.8143
0.00134122	34.9153
0.00134896	35.0166
0.00135675	35.1182
0.00136458	35.2201
0.00137246	35.3222
0.00138038	35.4247
0.00138835	35.5275
0.00139637	35.6306
0.00140443	35.7339
0.00141254	35.8376
0.00142069	35.9415
0.00142889	36.0458
0.00143714	36.1504
0.00144544	36.2552
0.00145378	36.3604
0.00146218	36.4659
0.00147062	36.5716
0.00147911	36.6777
0.00148765	36.7841
0.00149624	36.8908
0.00150487	36.9978
0.00151356	37.1051
0.0015223	37.2127
0.00153109	37.3206
0.00153993	37.4289
0.00154882	37.5374
0.00155776	37.6463
0.00156675	37.7554
0.0015758	37.8649
0.00158489	37.9747
0.00159404	38.0849
0.00160325	38.1953
0.0016125	38.306
0.00162181	38.4171
0.00163117	38.5285
0.00164059	38.6402
0.00165006	38.7523
0.00165959	38.8646
0.00166917	38.9773
0.0016788	39.0903
0.0016885	39.2037
0.00169824	39.3173
0.00170805	39.4313
0.00171791	39.5456
0.00172783	39.6603
0.0017378	39.7753
0.00174783	39.8906
0.00175792	40.0062
0.00176807	40.1222
0.00177828	40.2385
0.00178855	40.3552
0.00179887	40.4721
0.00180926	40.5895
0.0018197	40.7071
0.00183021	40.8251
0.00184077	40.9435
0.0018514	41.0621
0.00186209	41.1812
0.00187284	41.3005
0.00188365	41.4202
0.00189452	41.5403
0.00190546	41.6607
0.00191646	41.7814
0.00192752	41.9025
0.00193865	42.024
0.00194984	42.1457
0.0019611	42.2679
0.00197242	42.3904
0.00198381	42.5132
0.00199526	42.6364
0.00200678	42.76
0.00201837	42.8839
0.00203002	43.0082
0.00204174	43.1328
0.00205353	43.2578
0.00206538	43.3832
0.0020773	43.5089
0.0020893	43.6349
0.00210136	43.7614
0.00211349	43.8882
0.00212569	44.0153
0.00213796	44.1429
0.0021503	44.2708
0.00216272	44.399
0.0021752	44.5277
0.00218776	44.6567
0.00220039	44.7861
0.00221309	44.9158
0.00222587	45.0459
0.00223872	45.1765
0.00225165	45.3073
0.00226464	45.4386
0.00227772	45.5702
0.00229087	45.7022
0.00230409	45.8346
0.00231739	45.9674
0.00233077	46.1006
0.00234423	46.2341
0.00235776	46.368
0.00237137	46.5024
0.00238506	46.6371
0.00239883	46.7721
0.00241268	46.9076
0.00242661	47.0435
0.00244062	47.1797
0.00245471	47.3164
0.00246888	47.4534
0.00248313	47.5909
0.00249747	47.7287
0.00251189	47.867
0.00252639	48.0056
0.00254097	48.1446
0.00255564	48.2841
0.0025704	48.4239
0.00258523	48.5641
0.00260016	48.7048
0.00261517	48.8458
0.00263027	48.9873
0.00264545	49.1292
0.00266073	49.2714
0.00267609	49.4141
0.00269153	49.5572
0.00270707	49.7007
0.0027227	49.8446
0.00273842	49.989
0.00275423	50.1337
0.00277013	50.2789
0.00278612	50.4245
0.00280221	50.5705
0.00281838	50.7169
0.00283465	50.8638
0.00285102	51.011
0.00286748	51.1587
0.00288403	51.3068
0.00290068	51.4554
0.00291743	51.6044
0.00293427	51.7538
0.00295121	51.9036
0.00296825	52.0539
0.00298538	52.2046
0.00300262	52.3557
0.00301995	52.5073
0.00303739	52.6593
0.00305492	52.8118
0.00307256	52.9646
0.0030903	53.118
0.00310814	53.2717
0.00312608	53.426
0.00314413	53.5806
0.00316228	53.7357
0.00318053	53.8913
0.0031989	54.0473
0.00321736	54.2037
0.00323594	54.3606
0.00325462	54.518
0.00327341	54.6758
0.0032923	54.834
0.00331131	54.9927
0.00333043	55.1519
0.00334965	55.3115
0.00336899	55.4716
0.00338844	55.6322
0.003408	55.7932
0.00342768	55.9547
0.00344747	56.1166
0.00346737	56.2791
0.00348739	56.4419
0.00350752	56.6053
0.00352777	56.7691
0.00354813	56.9334
0.00356862	57.0982
0.00358922	57.2634
0.00360994	57.4291
0.00363078	57.5953
0.00365174	57.762
0.00367282	57.9292
0.00369403	58.0968
0.00371535	58.2649
0.0037368	58.4335
0.00375837	58.6026
0.00378007	58.7722
0.00380189	58.9423
0.00382384	59.1128
0.00384592	59.2839
0.00386812	59.4554
0.00389045	59.6274
0.00391291	59.8
0.0039355	59.973
0.00395822	60.1465
0.00398107	60.3206
0.00400405	60.4951
0.00402717	60.6701
0.00405042	60.8457
0.0040738	61.0217
0.00409732	61.1983
0.00412098	61.3753
0.00414477	61.5529
0.00416869	61.731
0.00419276	61.9096
0.00421697	62.0887
0.00424131	62.2683
0.0042658	62.4484
0.00429042	62.6291
0.00431519	62.8103
0.0043401	62.992
0.00436516	63.1742
0.00439036	63.357
0.0044157	63.5403
0.0044412	63.7241
0.00446684	63.9084
0.00449262	64.0933
0.00451856	64.2787
0.00454465	64.4646
0.00457088	64.6511
0.00459727	64.8381
0.00462381	65.0257
0.0046505	65.2138
0.00467735	65.4024
0.00470435	65.5916
0.00473151	65.7813
0.00475883	65.9716
0.0047863	66.1624
0.00481393	66.3538
0.00484172	66.5457
0.00486968	66.7381
0.00489779	66.9312
0.00492606	67.1248
0.0049545	67.3189
0.0049831	67.5136
0.00501187	67.7089
0.00504081	67.9047
0.00506991	68.1011
0.00509918	68.298
0.00512861	68.4956
0.00515822	68.6937
0.005188	68.8923
0.00521795	69.0916
0.00524807	69.2914
0.00527837	69.4918
0.00530884	69.6927
0.00533949	69.8943
0.00537032	70.0964
0.00540132	70.2991
0.0054325	70.5024
0.00546387	70.7063
0.00549541	70.9107
0.00552713	71.1158
0.00555904	71.3214
0.00559114	71.5277
0.00562341	71.7345
0.00565588	71.9419
0.00568853	72.15
0.00572137	72.3586
0.0057544	72.5678
0.00578762	72.7777
0.00582103	72.9881
0.00585464	73.1991
0.00588844	73.4108
0.00592243	73.6231
0.00595662	73.8359
0.00599101	74.0494
0.0060256	74.2635
0.00606038	74.4782
0.00609537	74.6936
0.00613056	74.9095
0.00616595	75.1261
0.00620155	75.3433
0.00623735	75.5611
0.00627336	75.7796
0.00630957	75.9987
0.006346	76.2184
0.00638263	76.4388
0.00641948	76.6598
0.00645654	76.8814
0.00649382	77.1036
0.00653131	77.3266
0.00656901	77.5501
0.00660693	77.7743
0.00664508	77.9991
0.00668344	78.2246
0.00672202	78.4508
0.00676083	78.6775
0.00679986	78.905
0.00683912	79.1331
0.0068786	79.3618
0.00691831	79.5913
0.00695825	79.8213
0.00699842	80.0521
0.00703882	80.2835
0.00707946	80.5155
0.00712033	80.7483
0.00716143	80.9817
0.00720278	81.2158
0.00724436	81.4505
0.00728618	81.686
0.00732825	81.9221
0.00737055	82.1589
0.0074131	82.3964
0.0074559	82.6345
0.00749894	82.8734
0.00754223	83.1129
0.00758578	83.3531
0.00762957	83.594
0.00767361	83.8357
0.00771792	84.078
0.00776247	84.321
0.00780728	84.5647
0.00785236	84.8091
0.00789769	85.0542
0.00794328	85.3
0.00798914	85.5466
0.00803526	85.7938
0.00808165	86.0418
0.00812831	86.2904
0.00817523	86.5398
0.00822243	86.7899
0.0082699	87.0407
0.00831764	87.2923
0.00836566	87.5446
0.00841395	87.7976
0.00846253	88.0513
0.00851138	88.3058
0.00856052	88.5609
0.00860994	88.8169
0.00865964	89.0735
0.00870964	89.3309
0.00875992	89.5891
0.00881049	89.848
0.00886135	90.1076
0.00891251	90.368
0.00896396	90.6292
0.00901571	90.891
0.00906776	91.1537
0.00912011	91.4171
0.00917276	91.6813
0.00922571	91.9462
0.00927897	92.2119
0.00933254	92.4783
0.00938642	92.7455
0.00944061	93.0135
0.00949511	93.2823
0.00954993	93.5518
0.00960506	95.875
0.00966051	96.1507
0.00971628	96.4273
0.00977237	96.7046
0.00982879	96.9827
0.00988553	97.2617
0.0099426	97.5414
0.01	97.822
0.0100577	98.1033
0.0101158	98.3855
0.0101742	98.6684
0.0102329	98.9522
0.010292	99.2368
0.0103514	99.5222
0.0104112	99.8084
0.0104713	100.095
0.0105317	100.383
0.0105925	100.672
0.0106537	100.962
0.0107152	101.252
0.0107771	101.543
0.0108393	101.835
0.0109018	102.128
0.0109648	102.422
0.0110281	102.716
0.0110917	103.012
0.0111558	103.308
0.0112202	103.605
0.011285	103.903
0.0113501	104.202
0.0114156	104.501
0.0114815	104.802
0.0115478	105.103
0.0116145	105.405
0.0116815	105.708
0.011749	106.012
0.0118168	106.317
0.011885	106.623
0.0119536	106.93
0.0120226	107.237
0.0120921	107.545
0.0121619	107.855
0.0122321	108.165
0.0123027	108.476
0.0123737	108.788
0.0124451	109.101
0.012517	109.414
0.0125893	109.729
0.0126619	110.044
0.012735	110.361
0.0128086	110.678
0.0128825	110.996
0.0129569	111.315
0.0130317	111.636
0.0131069	111.957
0.0131826	112.278
0.0132587	112.601
0.0133352	112.925
0.0134122	113.25
0.0134896	113.575
0.0135675	113.902
0.0136458	114.229
0.0137246	114.558
0.0138038	114.887
0.0138835	115.217
0.0139637	115.549
0.0140443	115.881
0.0141254	116.214
0.0142069	116.548
0.0142889	116.883
0.0143714	117.219
0.0144544	117.556
0.0145378	117.894
0.0146218	118.233
0.0147062	118.573
0.0147911	118.914
0.0148765	119.256
0.0149624	119.598
0.0150487	119.942
0.0151356	120.287
0.015223	120.633
0.0153109	120.98
0.0153993	121.327
0.0154882	121.676
0.0155776	122.026
0.0156675	122.377
0.015758	122.728
0.0158489	123.081
0.0159404	123.435
0.0160325	123.79
0.016125	124.146
0.0162181	124.502
0.0163117	124.86
0.0164059	125.219
0.0165006	125.579
0.0165959	125.94
0.0166917	126.302
0.016788	126.665
0.016885	127.029
0.0169824	127.394
0.0170805	127.76
0.0171791	128.128
0.0172783	128.496
0.017378	128.865
0.0174783	129.235
0.0175792	129.607
0.0176807	129.979
0.0177828	130.353
0.0178855	130.728
0.0179887	131.103
0.0180926	131.48
0.018197	131.858
0.0183021	132.237
0.0184077	132.617
0.018514	132.998
0.0186209	133.38
0.0187284	133.764
0.0188365	134.148
0.0189452	134.534
0.0190546	134.92
0.0191646	135.308
0.0192752	135.697
0.0193865	136.087
0.0194984	136.478
0.019611	136.87
0.0197242	137.263
0.0198381	137.658
0.0199526	138.053
0.0200678	138.45
0.0201837	138.848
0.0203002	139.247
0.0204174	139.647
0.0205353	140.048
0.0206538	140.45
0.020773	140.854
0.020893	141.259
0.0210136	141.665
0.0211349	142.072
0.0212569	142.48
0.0213796	142.889
0.021503	143.3
0.0216272	143.711
0.021752	144.124
0.0218776	144.538
0.0220039	144.954
0.0221309	145.37
0.0222587	145.788
0.0223872	146.207
0.0225165	146.627
0.0226464	147.048
0.0227772	147.47
0.0229087	147.894
0.0230409	148.319
0.0231739	148.745
0.0233077	149.172
0.0234423	149.601
0.0235776	150.031
0.0237137	150.462
0.0238506	150.894
0.0239883	151.327
0.0241268	151.762
0.0242661	152.198
0.0244062	152.635
0.0245471	153.074
0.0246888	153.513
0.0248313	153.954
0.0249747	154.397
0.0251189	154.84
0.0252639	155.285
0.0254097	155.731
0.0255564	156.178
0.025704	156.627
0.0258523	157.077
0.0260016	157.528
0.0261517	157.98
0.0263027	158.434
0.0264545	158.889
0.0266073	159.346
0.0267609	159.803
0.0269153	160.262
0.0270707	160.722
0.027227	161.184
0.0273842	161.647
0.0275423	162.111
0.0277013	162.577
0.0278612	163.044
0.0280221	163.512
0.0281838	163.982
0.0283465	164.452
0.0285102	164.925
0.0286748	165.398
0.0288403	165.873
0.0290068	166.35
0.0291743	166.827
0.0293427	167.306
0.0295121	167.787
0.0296825	168.269
0.0298538	168.752
0.0300262	169.236
0.0301995	169.722
0.0303739	170.21
0.0305492	170.699
0.0307256	171.189
0.030903	171.68
0.0310814	172.173
0.0312608	172.668
0.0314413	173.163
0.0316228	173.661
0.0318053	174.159
0.031989	174.659
0.0321736	175.161
0.0323594	175.664
0.0325462	176.168
0.0327341	176.674
0.032923	177.181
0.0331131	177.69
0.0333043	178.2
0.0334965	178.711
0.0336899	179.224
0.0338844	179.739
0.03408	180.255
0.0342768	180.772
0.0344747	181.291
0.0346737	181.812
0.0348739	182.334
0.0350752	182.857
0.0352777	183.382
0.0354813	183.908
0.0356862	184.436
0.0358922	184.966
0.0360994	185.497
0.0363078	186.029
0.0365174	186.563
0.0367282	187.099
0.0369403	187.636
0.0371535	188.174
0.037368	188.714
0.0375837	189.256
0.0378007	189.799
0.0380189	190.344
0.0382384	190.89
0.0384592	191.438
0.0386812	191.988
0.0389045	192.539
0.0391291	193.091
0.039355	193.645
0.0395822	194.201
0.0398107	194.759
0.0400405	195.318
0.0402717	195.878
0.0405042	196.44
0.040738	197.004
0.0409732	197.569
0.0412098	198.136
0.0414477	198.705
0.0416869	199.275
0.0419276	199.847
0.0421697	200.42
0.0424131	200.995
0.042658	201.572
0.0429042	202.151
0.0431519	202.731
0.043401	203.312
0.0436516	203.896
0.0439036	204.481
0.044157	205.067
0.044412	205.656
0.0446684	206.246
0.0449262	206.838
0.0451856	207.431
0.0454465	208.026
0.0457088	208.623
0.0459727	209.222
0.0462381	209.822
0.046505	210.424
0.0467735	211.027
0.0470435	211.633
0.0473151	212.24
0.0475883	212.849
0.047863	213.459
0.0481393	214.072
0.0484172	214.686
0.0486968	215.302
0.0489779	215.919
0.0492606	216.539
0.049545	217.16
0.049831	217.783
0.0501187	218.407
0.0504081	219.034
0.0506991	219.662
0.0509918	220.292
0.0512861	220.924
0.0515822	221.558
0.05188	222.193
0.0521795	222.83
0.0524807	223.469
0.0527837	224.11
0.0530884	224.753
0.0533949	225.398
0.0537032	226.044
0.0540132	226.692
0.054325	227.343
0.0546387	227.994
0.0549541	228.648
0.0552713	229.304
0.0555904	229.962
0.0559114	230.621
0.0562341	231.282
0.0565588	231.946
0.0568853	232.611
0.0572137	233.278
0.057544	233.947
0.0578762	234.617
0.0582103	235.29
0.0585464	235.965
0.0588844	236.641
0.0592243	237.32
0.0595662	238
0.0599101	238.683
0.060256	239.367
0.0606038	240.053
0.0609537	240.741
0.0613056	241.432
0.0616595	242.124
0.0620155	242.818
0.0623735	243.514
0.0627336	244.212
0.0630957	244.912
0.06346	245.614
0.0638263	246.318
0.0641948	247.024
0.0645654	247.732
0.0649382	248.443
0.0653131	249.155
0.0656901	249.869
0.0660693	250.585
0.0664508	251.303
0.0668344	252.024
0.0672202	252.746
0.0676083	253.47
0.0679986	254.197
0.0683912	254.925
0.068786	255.656
0.0691831	256.389
0.0695825	257.124
0.0699842	257.86
0.0703882	258.599
0.0707946	259.341
0.0712033	260.084
0.0716143	260.829
0.0720278	261.577
0.0724436	262.326
0.0728618	263.078
0.0732825	263.832
0.0737055	264.588
0.074131	265.346
0.074559	266.106
0.0749894	266.869
0.0754223	267.633
0.0758578	268.4
0.0762957	269.169
0.0767361	269.94
0.0771792	270.714
0.0776247	271.489
0.0780728	272.267
0.0785236	273.047
0.0789769	273.829
0.0794328	274.614
0.0798914	275.4
0.0803526	276.189
0.0808165	276.981
0.0812831	277.774
0.0817523	278.57
0.0822243	279.368
0.082699	280.168
0.0831764	280.97
0.0836566	281.775
0.0841395	282.582
0.0846253	283.392
0.0851138	284.203
0.0856052	285.017
0.0860994	285.834
0.0865964	286.652
0.0870964	287.473
0.0875992	288.297
0.0881049	289.122
0.0886135	289.95
0.0891251	290.781
0.0896396	291.613
0.0901571	292.449
0.0906776	293.286
0.0912011	294.126
0.0917276	294.968
0.0922571	295.813
0.0927897	296.66
0.0933254	297.509
0.0938642	298.361
0.0944061	299.215
0.0949511	300.072
0.0954993	300.931
0.0960506	301.793
0.0966051	302.657
0.0971628	303.523
0.0977237	304.392
0.0982879	305.264
0.0988553	306.138
0.099426	307.014
0.1	307.893
0.100577	308.774
0.101158	309.658
0.101742	310.545
0.102329	311.434
0.10292	312.325
0.103514	313.219
0.104112	314.115
0.104713	315.015
0.105317	315.916
0.105925	316.82
0.106537	317.727
0.107152	318.636
0.107771	319.548
0.108393	320.463
0.109018	321.38
0.109648	322.3
0.110281	323.222
0.110917	324.147
0.111558	325.075
0.112202	326.005
0.11285	326.938
0.113501	327.873
0.114156	328.811
0.114815	329.752
0.115478	330.696
0.116145	331.642
0.116815	332.591
0.11749	333.542
0.118168	334.497
0.11885	335.454
0.119536	336.413
0.120226	337.376
0.120921	338.341
0.121619	339.309
0.122321	340.279
0.123027	341.253
0.123737	342.229
0.124451	343.208
0.12517	344.19
0.125893	345.174
0.126619	346.161
0.12735	347.151
0.128086	348.144
0.128825	349.14
0.129569	350.139
0.130317	351.14
0.131069	352.144
0.131826	353.151
0.132587	354.161
0.133352	355.174
0.134122	356.19
0.134896	357.208
0.135675	358.23
0.136458	359.254
0.137246	360.281
0.138038	361.311
0.138835	362.345
0.139637	363.381
0.140443	364.419
0.141254	365.461
0.142069	366.506
0.142889	367.554
0.143714	368.605
0.144544	369.659
0.145378	370.715
0.146218	371.775
0.147062	372.838
0.147911	373.904
0.148765	374.972
0.149624	376.044
0.150487	377.119
0.151356	378.197
0.15223	379.278
0.153109	380.362
0.153993	381.449
0.154882	382.539
0.155776	383.632
0.156675	384.729
0.15758	385.828
0.158489	386.931
0.159404	388.036
0.160325	389.145
0.16125	390.257
0.162181	391.372
0.163117	392.491
0.164059	393.612
0.165006	394.737
0.165959	395.865
0.166917	396.996
0.16788	398.13
0.16885	399.267
0.169824	400.408
0.170805	401.552
0.171791	402.699
0.172783	403.849
0.17378	405.003
0.174783	406.16
0.175792	407.32
0.176807	408.483
0.177828	409.65
0.178855	410.82
0.179887	411.993
0.180926	413.17
0.18197	414.35
0.183021	415.533
0.184077	416.72
0.18514	417.91
0.186209	419.104
0.187284	420.3
0.188365	421.5
0.189452	422.704
0.190546	423.911
0.191646	425.121
0.192752	426.335
0.193865	427.552
0.194984	428.773
0.19611	429.997
0.197242	431.225
0.198381	432.456
0.199526	433.69
0.200678	434.928
0.201837	436.17
0.203002	437.415
0.204174	438.664
0.205353	439.916
0.206538	441.171
0.20773	442.431
0.20893	443.693
0.210136	444.96
0.211349	446.23
0.212569	447.503
0.213796	448.78
0.21503	450.061
0.216272	451.345
0.21752	452.633
0.218776	453.925
0.220039	455.22
0.221309	456.519
0.222587	457.821
0.223872	459.127
0.225165	460.437
0.226464	461.751
0.227772	463.068
0.229087	464.389
0.230409	465.714
0.231739	467.043
0.233077	468.375
0.234423	469.711
0.235776	471.051
0.237137	472.394
0.238506	473.742
0.239883	475.093
0.241268	476.448
0.242661	477.807
0.244062	479.169
0.245471	480.536
0.246888	481.906
0.248313	483.28
0.249747	484.658
0.251189	486.04
0.252639	487.426
0.254097	488.816
0.255564	490.21
0.25704	491.607
0.258523	493.009
0.260016	494.414
0.261517	495.824
0.263027	497.237
0.264545	498.655
0.266073	500.076
0.267609	501.502
0.269153	502.931
0.270707	504.365
0.27227	505.802
0.273842	507.244
0.275423	508.689
0.277013	510.139
0.278612	511.593
0.280221	513.051
0.281838	514.513
0.283465	515.979
0.285102	517.449
0.286748	518.924
0.288403	520.402
0.290068	521.885
0.291743	523.372
0.293427	524.863
0.295121	526.358
0.296825	527.858
0.298538	529.361
0.300262	530.869
0.301995	532.381
0.303739	533.898
0.305492	535.419
0.307256	536.944
0.30903	538.473
0.310814	540.006
0.312608	541.544
0.314413	543.087
0.316228	544.633
0.318053	546.184
0.31989	547.739
0.321736	549.299
0.323594	550.863
0.325462	552.432
0.327341	554.004
0.32923	555.582
0.331131	557.163
0.333043	558.75
0.334965	560.34
0.336899	561.935
0.338844	563.535
0.3408	565.139
0.342768	566.748
0.344747	568.361
0.346737	569.978
0.348739	571.601
0.350752	573.227
0.352777	574.859
0.354813	576.494
0.356862	578.135
0.358922	579.78
0.360994	581.43
0.363078	583.084
0.365174	584.743
0.367282	586.407
0.369403	588.075
0.371535	589.748
0.37368	591.426
0.375837	593.108
0.378007	594.796
0.380189	596.487
0.382384	598.184
0.384592	599.885
0.386812	601.592
0.389045	603.303
0.391291	605.018
0.39355	606.739
0.395822	608.464
0.398107	610.195
0.400405	611.93
0.402717	613.67
0.405042	615.415
0.40738	617.164
0.409732	618.919
0.412098	620.679
0.414477	622.443
0.416869	624.213
0.419276	625.987
0.421697	627.766
0.424131	629.551
0.42658	631.34
0.429042	633.134
0.431519	634.934
0.43401	636.738
0.436516	638.548
0.439036	640.362
0.44157	642.182
0.44412	644.007
0.446684	645.837
0.449262	647.672
0.451856	649.512
0.454465	651.357
0.457088	653.208
0.459727	655.063
0.462381	656.924
0.46505	658.79
0.467735	660.662
0.470435	662.538
0.473151	664.42
0.475883	666.307
0.47863	668.199
0.481393	670.097
0.484172	672
0.486968	673.908
0.489779	675.822
0.492606	677.741
0.49545	679.665
0.49831	681.595
0.501187	683.53
0.504081	685.47
0.506991	687.416
0.509918	689.367
0.512861	691.324
0.515822	693.286
0.5188	695.254
0.521795	697.228
0.524807	699.206
0.527837	701.191
0.530884	703.18
0.533949	705.176
0.537032	707.177
0.540132	709.183
0.54325	711.196
0.546387	713.213
0.549541	715.237
0.552713	717.266
0.555904	719.301
0.559114	721.341
0.562341	723.387
0.565588	725.439
0.568853	727.497
0.572137	729.56
0.57544	731.629
0.578762	733.704
0.582103	735.785
0.585464	737.871
0.588844	739.963
0.592243	742.061
0.595662	744.165
0.599101	746.275
0.60256	748.391
0.606038	750.512
0.609537	752.64
0.613056	754.773
