Stopping power dEdx from Ionisation for Ca40[0.0] Z = 20 in G4_TISSUE_SOFT_ICRP, process name: ionIoni
E [MeV]	dEdx [MeV/mm]
0.001	65.9407
0.00100577	66.1308
0.00101158	66.3214
0.00101742	66.5126
0.00102329	66.7043
0.0010292	66.8965
0.00103514	67.0894
0.00104112	67.2827
0.00104713	67.4767
0.00105317	67.6712
0.00105925	67.8662
0.00106537	68.0618
0.00107152	68.258
0.00107771	68.4548
0.00108393	68.6521
0.00109018	68.8499
0.00109648	69.0484
0.00110281	69.2474
0.00110917	69.447
0.00111558	69.6472
0.00112202	69.8479
0.0011285	70.0493
0.00113501	70.2512
0.00114156	70.4537
0.00114815	70.6567
0.00115478	70.8604
0.00116145	71.0646
0.00116815	71.2695
0.0011749	71.4749
0.00118168	71.6809
0.0011885	71.8875
0.00119536	72.0947
0.00120226	72.3026
0.00120921	72.511
0.00121619	72.72
0.00122321	72.9296
0.00123027	73.1398
0.00123737	73.3506
0.00124451	73.562
0.0012517	73.774
0.00125893	73.9867
0.00126619	74.2
0.0012735	74.4138
0.00128086	74.6283
0.00128825	74.8434
0.00129569	75.0591
0.00130317	75.2755
0.00131069	75.4925
0.00131826	75.7101
0.00132587	75.9283
0.00133352	76.1471
0.00134122	76.3666
0.00134896	76.5867
0.00135675	76.8075
0.00136458	77.0289
0.00137246	77.2509
0.00138038	77.4736
0.00138835	77.6969
0.00139637	77.9208
0.00140443	78.1454
0.00141254	78.3707
0.00142069	78.5966
0.00142889	78.8231
0.00143714	79.0503
0.00144544	79.2782
0.00145378	79.5067
0.00146218	79.7358
0.00147062	79.9657
0.00147911	80.1962
0.00148765	80.4273
0.00149624	80.6591
0.00150487	80.8916
0.00151356	81.1248
0.0015223	81.3586
0.00153109	81.5931
0.00153993	81.8283
0.00154882	82.0642
0.00155776	82.3007
0.00156675	82.5379
0.0015758	82.7758
0.00158489	83.0144
0.00159404	83.2537
0.00160325	83.4937
0.0016125	83.7343
0.00162181	83.9757
0.00163117	84.2177
0.00164059	84.4605
0.00165006	84.7039
0.00165959	84.9481
0.00166917	85.1929
0.0016788	85.4385
0.0016885	85.6848
0.00169824	85.9317
0.00170805	86.1794
0.00171791	86.4278
0.00172783	86.6769
0.0017378	86.9268
0.00174783	87.1773
0.00175792	87.4286
0.00176807	87.6806
0.00177828	87.9333
0.00178855	88.1868
0.00179887	88.441
0.00180926	88.6959
0.0018197	88.9516
0.00183021	89.208
0.00184077	89.4651
0.0018514	89.723
0.00186209	89.9816
0.00187284	90.2409
0.00188365	90.501
0.00189452	90.7619
0.00190546	91.0235
0.00191646	91.2859
0.00192752	91.549
0.00193865	91.8129
0.00194984	92.0775
0.0019611	92.3429
0.00197242	92.6091
0.00198381	92.876
0.00199526	93.1437
0.00200678	93.4122
0.00201837	93.6815
0.00203002	93.9515
0.00204174	94.2223
0.00205353	94.4939
0.00206538	94.7662
0.0020773	95.0394
0.0020893	95.3133
0.00210136	95.5881
0.00211349	95.8636
0.00212569	96.1399
0.00213796	96.417
0.0021503	96.6949
0.00216272	96.9736
0.0021752	97.2531
0.00218776	97.5335
0.00220039	97.8146
0.00221309	98.0965
0.00222587	98.3793
0.00223872	98.6628
0.00225165	98.9472
0.00226464	99.2324
0.00227772	99.5185
0.00229087	99.8053
0.00230409	100.093
0.00231739	100.381
0.00233077	100.671
0.00234423	100.961
0.00235776	101.252
0.00237137	101.544
0.00238506	101.837
0.00239883	102.13
0.00241268	102.424
0.00242661	102.72
0.00244062	103.016
0.00245471	103.313
0.00246888	103.61
0.00248313	103.909
0.00249747	104.209
0.00251189	104.509
0.00252639	104.81
0.00254097	105.112
0.00255564	105.415
0.0025704	105.719
0.00258523	106.024
0.00260016	106.329
0.00261517	106.636
0.00263027	106.943
0.00264545	107.252
0.00266073	107.561
0.00267609	107.871
0.00269153	108.182
0.00270707	108.493
0.0027227	108.806
0.00273842	109.12
0.00275423	109.434
0.00277013	109.75
0.00278612	110.066
0.00280221	110.383
0.00281838	110.702
0.00283465	111.021
0.00285102	111.341
0.00286748	111.662
0.00288403	111.983
0.00290068	112.306
0.00291743	112.63
0.00293427	112.955
0.00295121	113.28
0.00296825	113.607
0.00298538	113.934
0.00300262	114.262
0.00301995	114.592
0.00303739	114.922
0.00305492	115.253
0.00307256	115.586
0.0030903	115.919
0.00310814	116.253
0.00312608	116.588
0.00314413	116.924
0.00316228	117.261
0.00318053	117.599
0.0031989	117.938
0.00321736	118.278
0.00323594	118.619
0.00325462	118.961
0.00327341	119.304
0.0032923	119.647
0.00331131	119.992
0.00333043	120.338
0.00334965	120.685
0.00336899	121.033
0.00338844	121.382
0.003408	121.732
0.00342768	122.083
0.00344747	122.434
0.00346737	122.787
0.00348739	123.141
0.00350752	123.496
0.00352777	123.852
0.00354813	124.209
0.00356862	124.567
0.00358922	124.926
0.00360994	125.286
0.00363078	125.647
0.00365174	126.01
0.00367282	126.373
0.00369403	126.737
0.00371535	127.102
0.0037368	127.469
0.00375837	127.836
0.00378007	128.205
0.00380189	128.574
0.00382384	128.945
0.00384592	129.316
0.00386812	129.689
0.00389045	130.063
0.00391291	130.438
0.0039355	130.814
0.00395822	131.191
0.00398107	131.569
0.00400405	131.948
0.00402717	132.329
0.00405042	132.71
0.0040738	133.093
0.00409732	133.476
0.00412098	133.861
0.00414477	134.247
0.00416869	134.634
0.00419276	135.022
0.00421697	135.411
0.00424131	135.801
0.0042658	136.193
0.00429042	136.585
0.00431519	136.979
0.0043401	137.374
0.00436516	137.77
0.00439036	138.167
0.0044157	138.565
0.0044412	138.964
0.00446684	139.365
0.00449262	139.767
0.00451856	140.17
0.00454465	140.574
0.00457088	140.979
0.00459727	141.385
0.00462381	141.793
0.0046505	142.201
0.00467735	142.611
0.00470435	143.022
0.00473151	143.434
0.00475883	143.848
0.0047863	144.263
0.00481393	144.678
0.00484172	145.095
0.00486968	145.514
0.00489779	145.933
0.00492606	146.354
0.0049545	146.776
0.0049831	147.199
0.00501187	147.623
0.00504081	148.048
0.00506991	148.475
0.00509918	148.903
0.00512861	149.332
0.00515822	149.763
0.005188	150.194
0.00521795	150.627
0.00524807	151.061
0.00527837	151.497
0.00530884	151.934
0.00533949	152.371
0.00537032	152.811
0.00540132	153.251
0.0054325	153.693
0.00546387	154.136
0.00549541	154.58
0.00552713	155.026
0.00555904	155.473
0.00559114	155.921
0.00562341	156.37
0.00565588	156.821
0.00568853	157.273
0.00572137	157.726
0.0057544	158.181
0.00578762	158.637
0.00582103	159.094
0.00585464	159.553
0.00588844	160.012
0.00592243	160.474
0.00595662	160.936
0.00599101	161.4
0.0060256	161.865
0.00606038	162.332
0.00609537	162.8
0.00613056	163.269
0.00616595	163.74
0.00620155	164.212
0.00623735	164.685
0.00627336	165.16
0.00630957	165.636
0.006346	166.113
0.00638263	166.592
0.00641948	167.072
0.00645654	167.554
0.00649382	168.036
0.00653131	168.521
0.00656901	169.007
0.00660693	169.494
0.00664508	169.982
0.00668344	170.472
0.00672202	170.964
0.00676083	171.456
0.00679986	171.951
0.00683912	172.446
0.0068786	172.943
0.00691831	173.442
0.00695825	173.942
0.00699842	174.443
0.00703882	174.946
0.00707946	175.45
0.00712033	175.956
0.00716143	176.463
0.00720278	176.972
0.00724436	177.482
0.00728618	177.993
0.00732825	178.506
0.00737055	179.021
0.0074131	179.537
0.0074559	180.054
0.00749894	180.573
0.00754223	181.094
0.00758578	181.616
0.00762957	182.139
0.00767361	182.664
0.00771792	183.191
0.00776247	183.719
0.00780728	184.248
0.00785236	184.779
0.00789769	185.312
0.00794328	185.846
0.00798914	186.382
0.00803526	186.919
0.00808165	187.458
0.00812831	187.998
0.00817523	188.54
0.00822243	189.083
0.0082699	189.629
0.00831764	190.175
0.00836566	190.723
0.00841395	191.273
0.00846253	191.824
0.00851138	192.377
0.00856052	192.932
0.00860994	193.488
0.00865964	194.046
0.00870964	194.605
0.00875992	195.166
0.00881049	195.728
0.00886135	196.292
0.00891251	196.858
0.00896396	197.426
0.00901571	197.995
0.00906776	198.565
0.00912011	199.138
0.00917276	199.712
0.00922571	200.287
0.00927897	200.865
0.00933254	201.444
0.00938642	202.024
0.00944061	202.607
0.00949511	203.191
0.00954993	203.776
0.00960506	204.364
0.00966051	204.953
0.00971628	205.543
0.00977237	206.136
0.00982879	206.73
0.00988553	207.326
0.0099426	207.924
0.01	208.519
0.0100577	209.105
0.0101158	209.693
0.0101742	210.283
0.0102329	210.875
0.010292	211.468
0.0103514	212.063
0.0104112	212.66
0.0104713	213.258
0.0105317	213.858
0.0105925	214.46
0.0106537	215.064
0.0107152	215.669
0.0107771	216.276
0.0108393	216.885
0.0109018	217.496
0.0109648	218.108
0.0110281	218.722
0.0110917	219.338
0.0111558	219.956
0.0112202	220.575
0.011285	221.196
0.0113501	221.819
0.0114156	222.444
0.0114815	223.071
0.0115478	223.699
0.0116145	224.329
0.0116815	224.961
0.011749	225.595
0.0118168	226.231
0.011885	226.868
0.0119536	227.508
0.0120226	228.149
0.0120921	228.792
0.0121619	229.437
0.0122321	230.084
0.0123027	230.732
0.0123737	231.383
0.0124451	232.035
0.012517	232.689
0.0125893	233.345
0.0126619	234.003
0.012735	234.663
0.0128086	235.325
0.0128825	235.989
0.0129569	236.655
0.0130317	237.322
0.0131069	237.992
0.0131826	238.663
0.0132587	239.337
0.0133352	240.012
0.0134122	240.689
0.0134896	241.368
0.0135675	242.05
0.0136458	242.733
0.0137246	243.418
0.0138038	244.105
0.0138835	244.794
0.0139637	245.485
0.0140443	246.178
0.0141254	246.873
0.0142069	247.57
0.0142889	248.27
0.0143714	248.971
0.0144544	249.674
0.0145378	250.379
0.0146218	251.086
0.0147062	251.796
0.0147911	252.507
0.0148765	253.22
0.0149624	253.936
0.0150487	254.653
0.0151356	255.373
0.015223	256.095
0.0153109	256.818
0.0153993	257.544
0.0154882	258.272
0.0155776	259.002
0.0156675	259.734
0.015758	260.469
0.0158489	261.205
0.0159404	261.944
0.0160325	262.684
0.016125	263.427
0.0162181	264.172
0.0163117	264.919
0.0164059	265.669
0.0165006	266.42
0.0165959	267.174
0.0166917	267.929
0.016788	268.688
0.016885	269.448
0.0169824	270.21
0.0170805	270.975
0.0171791	271.742
0.0172783	272.511
0.017378	273.282
0.0174783	274.055
0.0175792	274.831
0.0176807	275.609
0.0177828	276.39
0.0178855	277.172
0.0179887	277.957
0.0180926	278.744
0.018197	279.533
0.0183021	280.325
0.0184077	281.119
0.018514	281.915
0.0186209	282.714
0.0187284	283.515
0.0188365	284.318
0.0189452	285.123
0.0190546	285.931
0.0191646	286.741
0.0192752	287.554
0.0193865	288.369
0.0194984	289.186
0.019611	290.006
0.0197242	290.828
0.0198381	291.652
0.0199526	292.479
0.0200678	293.308
0.0201837	294.14
0.0203002	294.974
0.0204174	295.81
0.0205353	296.649
0.0206538	297.49
0.020773	298.334
0.020893	299.18
0.0210136	300.029
0.0211349	300.88
0.0212569	301.734
0.0213796	302.59
0.021503	303.448
0.0216272	304.309
0.021752	305.173
0.0218776	306.039
0.0220039	306.908
0.0221309	307.779
0.0222587	308.652
0.0223872	309.529
0.0225165	310.407
0.0226464	311.289
0.0227772	312.172
0.0229087	313.059
0.0230409	313.948
0.0231739	314.839
0.0233077	315.734
0.0234423	316.63
0.0235776	317.53
0.0237137	318.432
0.0238506	319.336
0.0239883	320.244
0.0241268	321.154
0.0242661	322.066
0.0244062	322.981
0.0245471	323.899
0.0246888	324.82
0.0248313	325.743
0.0249747	326.669
0.0251189	327.597
0.0252639	328.529
0.0254097	329.463
0.0255564	330.4
0.025704	331.339
0.0258523	332.281
0.0260016	333.226
0.0261517	334.174
0.0263027	335.124
0.0264545	336.078
0.0266073	337.034
0.0267609	337.992
0.0269153	338.954
0.0270707	339.918
0.027227	340.886
0.0273842	341.856
0.0275423	342.828
0.0277013	343.804
0.0278612	344.783
0.0280221	345.764
0.0281838	346.748
0.0283465	347.735
0.0285102	348.725
0.0286748	349.718
0.0288403	350.714
0.0290068	351.713
0.0291743	352.714
0.0293427	353.719
0.0295121	354.726
0.0296825	355.736
0.0298538	356.75
0.0300262	357.766
0.0301995	358.785
0.0303739	359.808
0.0305492	360.833
0.0307256	361.861
0.030903	362.892
0.0310814	363.926
0.0312608	364.964
0.0314413	366.004
0.0316228	367.047
0.0318053	368.094
0.031989	369.143
0.0321736	370.195
0.0323594	371.251
0.0325462	372.31
0.0327341	373.371
0.032923	374.436
0.0331131	375.504
0.0333043	376.575
0.0334965	377.649
0.0336899	378.727
0.0338844	379.807
0.03408	380.891
0.0342768	381.977
0.0344747	383.067
0.0346737	384.16
0.0348739	385.257
0.0350752	386.356
0.0352777	387.459
0.0354813	388.565
0.0356862	389.674
0.0358922	390.787
0.0360994	391.903
0.0363078	393.022
0.0365174	394.144
0.0367282	395.269
0.0369403	396.398
0.0371535	397.53
0.037368	398.666
0.0375837	399.805
0.0378007	400.947
0.0380189	402.092
0.0382384	403.241
0.0384592	404.393
0.0386812	405.549
0.0389045	406.708
0.0391291	407.87
0.039355	409.036
0.0395822	410.205
0.0398107	411.377
0.0400405	412.204
0.0402717	412.477
0.0405042	412.754
0.040738	413.034
0.0409732	413.316
0.0412098	413.602
0.0414477	413.89
0.0416869	414.181
0.0419276	414.475
0.0421697	414.771
0.0424131	415.07
0.042658	415.372
0.0429042	415.676
0.0431519	415.983
0.043401	416.292
0.0436516	416.604
0.0439036	416.918
0.044157	417.235
0.044412	417.554
0.0446684	417.876
0.0449262	418.2
0.0451856	418.526
0.0454465	418.854
0.0457088	419.185
0.0459727	419.518
0.0462381	419.853
0.046505	420.19
0.0467735	420.529
0.0470435	420.871
0.0473151	421.214
0.0475883	421.56
0.047863	421.908
0.0481393	422.257
0.0484172	422.609
0.0486968	422.963
0.0489779	423.318
0.0492606	423.676
0.049545	424.035
0.049831	424.397
0.0501187	424.76
0.0504081	425.125
0.0506991	425.492
0.0509918	425.861
0.0512861	426.231
0.0515822	426.604
0.05188	426.978
0.0521795	427.354
0.0524807	427.732
0.0527837	428.111
0.0530884	428.492
0.0533949	428.875
0.0537032	429.259
0.0540132	429.645
0.054325	430.033
0.0546387	430.423
0.0549541	430.814
0.0552713	431.206
0.0555904	431.601
0.0559114	431.996
0.0562341	432.394
0.0565588	432.793
0.0568853	433.193
0.0572137	433.596
0.057544	433.999
0.0578762	434.404
0.0582103	434.811
0.0585464	435.219
0.0588844	435.629
0.0592243	436.04
0.0595662	436.453
0.0599101	436.867
0.060256	437.283
0.0606038	437.7
0.0609537	438.119
0.0613056	438.539
0.0616595	438.96
0.0620155	439.383
0.0623735	439.808
0.0627336	440.234
0.0630957	440.661
0.06346	441.09
0.0638263	441.52
0.0641948	441.951
0.0645654	442.384
0.0649382	442.819
0.0653131	443.255
0.0656901	443.692
0.0660693	444.131
0.0664508	444.571
0.0668344	445.012
0.0672202	445.455
0.0676083	445.899
0.0679986	446.345
0.0683912	446.792
0.068786	447.24
0.0691831	447.69
0.0695825	448.141
0.0699842	448.594
0.0703882	449.048
0.0707946	449.503
0.0712033	449.96
0.0716143	450.418
0.0720278	450.878
0.0724436	451.339
0.0728618	451.801
0.0732825	452.265
0.0737055	452.731
0.074131	453.197
0.074559	453.665
0.0749894	454.135
0.0754223	454.606
0.0758578	455.078
0.0762957	455.552
0.0767361	456.027
0.0771792	456.503
0.0776247	456.982
0.0780728	457.461
0.0785236	457.942
0.0789769	458.424
0.0794328	458.908
0.0798914	459.393
0.0803526	459.88
0.0808165	460.368
0.0812831	460.858
0.0817523	461.349
0.0822243	461.842
0.082699	462.336
0.0831764	462.831
0.0836566	463.329
0.0841395	463.827
0.0846253	464.327
0.0851138	464.829
0.0856052	465.332
0.0860994	465.837
0.0865964	466.343
0.0870964	466.851
0.0875992	467.36
0.0881049	467.871
0.0886135	468.383
0.0891251	468.897
0.0896396	469.413
0.0901571	469.93
0.0906776	470.449
0.0912011	470.969
0.0917276	471.491
0.0922571	472.015
0.0927897	472.54
0.0933254	473.067
0.0938642	473.595
0.0944061	474.126
0.0949511	474.657
0.0954993	475.191
0.0960506	475.726
0.0966051	476.263
0.0971628	476.802
0.0977237	477.342
0.0982879	477.884
0.0988553	478.427
0.099426	478.973
0.1	479.52
0.100577	480.069
0.101158	480.62
0.101742	481.172
0.102329	481.726
0.10292	482.282
0.103514	482.84
0.104112	483.4
0.104713	483.961
0.105317	484.525
0.105925	485.09
0.106537	485.657
0.107152	486.226
0.107771	486.796
0.108393	487.369
0.109018	487.944
0.109648	488.52
0.110281	489.098
0.110917	489.679
0.111558	490.261
0.112202	490.845
0.11285	491.431
0.113501	492.019
0.114156	492.609
0.114815	493.201
0.115478	493.795
0.116145	494.391
0.116815	494.989
0.11749	495.59
0.118168	496.192
0.11885	496.796
0.119536	497.402
0.120226	498.011
0.120921	498.621
0.121619	499.234
0.122321	499.849
0.123027	500.466
0.123737	501.085
0.124451	501.706
0.12517	502.329
0.125893	502.955
0.126619	503.583
0.12735	504.213
0.128086	504.845
0.128825	505.479
0.129569	506.116
0.130317	506.755
0.131069	507.396
0.131826	508.039
0.132587	508.685
0.133352	509.333
0.134122	509.983
0.134896	510.636
0.135675	511.291
0.136458	511.948
0.137246	512.608
0.138038	513.27
0.138835	513.935
0.139637	514.602
0.140443	515.271
0.141254	515.943
0.142069	516.617
0.142889	517.294
0.143714	517.973
0.144544	518.654
0.145378	519.338
0.146218	520.025
0.147062	520.714
0.147911	521.406
0.148765	522.1
0.149624	522.797
0.150487	523.496
0.151356	524.198
0.15223	524.903
0.153109	525.61
0.153993	526.319
0.154882	527.032
0.155776	527.747
0.156675	528.464
0.15758	529.185
0.158489	529.908
0.159404	530.634
0.160325	531.362
0.16125	532.093
0.162181	532.827
0.163117	533.564
0.164059	534.303
0.165006	535.045
0.165959	535.79
0.166917	536.538
0.16788	537.289
0.16885	538.042
0.169824	538.799
0.170805	539.558
0.171791	540.32
0.172783	541.085
0.17378	541.852
0.174783	542.623
0.175792	543.397
0.176807	544.173
0.177828	544.953
0.178855	545.735
0.179887	546.521
0.180926	547.309
0.18197	548.101
0.183021	548.895
0.184077	549.693
0.18514	550.493
0.186209	551.297
0.187284	552.103
0.188365	552.913
0.189452	553.726
0.190546	554.542
0.191646	555.361
0.192752	556.183
0.193865	557.008
0.194984	557.837
0.19611	558.668
0.197242	559.503
0.198381	560.341
0.199526	561.182
0.200678	562.027
0.201837	562.874
0.203002	563.725
0.204174	564.58
0.205353	565.437
0.206538	566.298
0.20773	567.162
0.20893	568.029
0.210136	568.9
0.211349	569.774
0.212569	570.651
0.213796	571.532
0.21503	572.416
0.216272	573.304
0.21752	574.195
0.218776	575.089
0.220039	575.987
0.221309	576.888
0.222587	577.793
0.223872	578.701
0.225165	579.613
0.226464	580.528
0.227772	581.446
0.229087	582.368
0.230409	583.294
0.231739	584.223
0.233077	585.156
0.234423	586.092
0.235776	587.032
0.237137	587.976
0.238506	588.923
0.239883	589.874
0.241268	590.828
0.242661	591.786
0.244062	592.748
0.245471	593.713
0.246888	594.682
0.248313	595.655
0.249747	596.631
0.251189	597.612
0.252639	598.595
0.254097	599.583
0.255564	600.575
0.25704	601.57
0.258523	602.569
0.260016	603.571
0.261517	604.578
0.263027	605.588
0.264545	606.602
0.266073	607.621
0.267609	608.642
0.269153	609.668
0.270707	610.698
0.27227	611.731
0.273842	612.769
0.275423	613.81
0.277013	614.855
0.278612	615.905
0.280221	616.958
0.281838	618.015
0.283465	619.076
0.285102	620.141
0.286748	621.21
0.288403	622.283
0.290068	623.36
0.291743	624.441
0.293427	625.527
0.295121	626.616
0.296825	627.709
0.298538	628.806
0.300262	629.908
0.301995	631.013
0.303739	632.123
0.305492	633.237
0.307256	634.355
0.30903	635.477
0.310814	636.603
0.312608	637.733
0.314413	638.868
0.316228	640.007
0.318053	641.15
0.31989	642.297
0.321736	643.448
0.323594	644.604
0.325462	645.764
0.327341	646.928
0.32923	648.096
0.331131	649.269
0.333043	650.446
0.334965	651.627
0.336899	652.812
0.338844	654.002
0.3408	655.196
0.342768	656.395
0.344747	657.598
0.346737	658.805
0.348739	660.016
0.350752	661.232
0.352777	662.452
0.354813	663.677
0.356862	664.906
0.358922	666.14
0.360994	667.378
0.363078	668.62
0.365174	669.867
0.367282	671.118
0.369403	672.374
0.371535	673.634
0.37368	674.899
0.375837	676.168
0.378007	677.441
0.380189	678.719
0.382384	680.002
0.384592	681.289
0.386812	682.581
0.389045	683.877
0.391291	685.178
0.39355	686.483
0.395822	687.793
0.398107	689.107
0.400405	690.426
0.402717	691.75
0.405042	693.078
0.40738	694.411
0.409732	695.748
0.412098	697.09
0.414477	698.437
0.416869	699.788
0.419276	701.144
0.421697	702.505
0.424131	703.87
0.42658	705.24
0.429042	706.614
0.431519	707.993
0.43401	709.377
0.436516	710.766
0.439036	712.159
0.44157	713.557
0.44412	714.96
0.446684	716.367
0.449262	717.779
0.451856	719.196
0.454465	720.617
0.457088	722.043
0.459727	723.474
0.462381	724.91
0.46505	726.35
0.467735	727.796
0.470435	729.245
0.473151	730.7
0.475883	732.159
0.47863	733.624
0.481393	735.093
0.484172	736.566
0.486968	738.045
0.489779	739.528
0.492606	741.016
0.49545	742.509
0.49831	744.007
0.501187	745.509
0.504081	747.016
0.506991	748.528
0.509918	750.045
0.512861	751.567
0.515822	753.093
0.5188	754.624
0.521795	756.16
0.524807	757.701
0.527837	759.247
0.530884	760.797
0.533949	762.352
0.537032	763.912
0.540132	765.477
0.54325	767.047
0.546387	768.621
0.549541	770.201
0.552713	771.785
0.555904	773.374
0.559114	774.967
0.562341	776.566
0.565588	778.169
0.568853	779.777
0.572137	781.39
0.57544	783.008
0.578762	784.63
0.582103	786.258
0.585464	787.89
0.588844	789.527
0.592243	791.168
0.595662	792.815
0.599101	794.466
0.60256	796.122
0.606038	797.783
