E [MeV]	dEdx [keV/microm]
0.001	24.155
0.00100577	24.225
0.00101158	24.2953
0.00101742	24.3657
0.00102329	24.4364
0.0010292	24.5072
0.00103514	24.5783
0.00104112	24.6496
0.00104713	24.721
0.00105317	24.7927
0.00105925	24.8646
0.00106537	24.9367
0.00107152	25.009
0.00107771	25.0815
0.00108393	25.1542
0.00109018	25.2271
0.00109648	25.3003
0.00110281	25.3736
0.00110917	25.4472
0.00111558	25.521
0.00112202	25.595
0.0011285	25.6692
0.00113501	25.7436
0.00114156	25.8182
0.00114815	25.893
0.00115478	25.9681
0.00116145	26.0434
0.00116815	26.1189
0.0011749	26.1946
0.00118168	26.2705
0.0011885	26.3467
0.00119536	26.423
0.00120226	26.4996
0.00120921	26.5764
0.00121619	26.6534
0.00122321	26.7307
0.00123027	26.8082
0.00123737	26.8859
0.00124451	26.9638
0.0012517	27.0419
0.00125893	27.1203
0.00126619	27.1989
0.0012735	27.2777
0.00128086	27.3568
0.00128825	27.4361
0.00129569	27.5156
0.00130317	27.5953
0.00131069	27.6753
0.00131826	27.7555
0.00132587	27.8359
0.00133352	27.9165
0.00134122	27.9974
0.00134896	28.0786
0.00135675	28.1599
0.00136458	28.2415
0.00137246	28.3233
0.00138038	28.4054
0.00138835	28.4877
0.00139637	28.5702
0.00140443	28.653
0.00141254	28.736
0.00142069	28.8193
0.00142889	28.9028
0.00143714	28.9865
0.00144544	29.0705
0.00145378	29.1547
0.00146218	29.2392
0.00147062	29.3239
0.00147911	29.4088
0.00148765	29.494
0.00149624	29.5795
0.00150487	29.6652
0.00151356	29.7511
0.0015223	29.8373
0.00153109	29.9237
0.00153993	30.0104
0.00154882	30.0973
0.00155776	30.1845
0.00156675	30.2719
0.0015758	30.3596
0.00158489	30.4475
0.00159404	30.5357
0.00160325	30.6242
0.0016125	30.7128
0.00162181	30.8018
0.00163117	30.891
0.00164059	30.9805
0.00165006	31.0702
0.00165959	31.1602
0.00166917	31.2504
0.0016788	31.3409
0.0016885	31.4317
0.00169824	31.5227
0.00170805	31.614
0.00171791	31.7055
0.00172783	31.7974
0.0017378	31.8894
0.00174783	31.9818
0.00175792	32.0744
0.00176807	32.1673
0.00177828	32.2604
0.00178855	32.3538
0.00179887	32.4475
0.00180926	32.5414
0.0018197	32.6356
0.00183021	32.7302
0.00184077	32.8249
0.0018514	32.9199
0.00186209	33.0153
0.00187284	33.1109
0.00188365	33.2067
0.00189452	33.3029
0.00190546	33.3993
0.00191646	33.496
0.00192752	33.5929
0.00193865	33.6902
0.00194984	33.7877
0.0019611	33.8855
0.00197242	33.9837
0.00198381	34.082
0.00199526	34.1807
0.00200678	34.2796
0.00201837	34.3788
0.00203002	34.4784
0.00204174	34.5782
0.00205353	34.6782
0.00206538	34.7787
0.0020773	34.8793
0.0020893	34.9803
0.00210136	35.0816
0.00211349	35.1831
0.00212569	35.2849
0.00213796	35.387
0.0021503	35.4895
0.00216272	35.5922
0.0021752	35.6952
0.00218776	35.7985
0.00220039	35.9021
0.00221309	36.006
0.00222587	36.1102
0.00223872	36.2147
0.00225165	36.3196
0.00226464	36.4247
0.00227772	36.5301
0.00229087	36.6358
0.00230409	36.7418
0.00231739	36.8482
0.00233077	36.9548
0.00234423	37.0617
0.00235776	37.169
0.00237137	37.2766
0.00238506	37.3844
0.00239883	37.4926
0.00241268	37.6011
0.00242661	37.7099
0.00244062	37.819
0.00245471	37.9285
0.00246888	38.0382
0.00248313	38.1483
0.00249747	38.2587
0.00251189	38.3694
0.00252639	38.4804
0.00254097	38.5917
0.00255564	38.7034
0.0025704	38.8154
0.00258523	38.9277
0.00260016	39.0403
0.00261517	39.1533
0.00263027	39.2666
0.00264545	39.3802
0.00266073	39.4941
0.00267609	39.6083
0.00269153	39.723
0.00270707	39.8379
0.0027227	39.9531
0.00273842	40.0687
0.00275423	40.1846
0.00277013	40.3009
0.00278612	40.4175
0.00280221	40.5344
0.00281838	40.6517
0.00283465	40.7692
0.00285102	40.8872
0.00286748	41.0055
0.00288403	41.1241
0.00290068	41.2431
0.00291743	41.3623
0.00293427	41.482
0.00295121	41.602
0.00296825	41.7223
0.00298538	41.843
0.00300262	41.964
0.00301995	42.0854
0.00303739	42.2072
0.00305492	42.3292
0.00307256	42.4517
0.0030903	42.5745
0.00310814	42.6976
0.00312608	42.8211
0.00314413	42.945
0.00316228	43.0692
0.00318053	43.1937
0.0031989	43.3186
0.00321736	43.444
0.00323594	43.5696
0.00325462	43.6956
0.00327341	43.822
0.0032923	43.9487
0.00331131	44.0758
0.00333043	44.2033
0.00334965	44.3311
0.00336899	44.4593
0.00338844	44.5879
0.003408	44.7168
0.00342768	44.8461
0.00344747	44.9759
0.00346737	45.1059
0.00348739	45.2363
0.00350752	45.3671
0.00352777	45.4983
0.00354813	45.6299
0.00356862	45.7618
0.00358922	45.8942
0.00360994	46.0269
0.00363078	46.16
0.00365174	46.2935
0.00367282	46.4273
0.00369403	46.5616
0.00371535	46.6962
0.0037368	46.8312
0.00375837	46.9666
0.00378007	47.1024
0.00380189	47.2386
0.00382384	47.3752
0.00384592	47.5122
0.00386812	47.6496
0.00389045	47.7873
0.00391291	47.9255
0.0039355	48.0641
0.00395822	48.203
0.00398107	48.3424
0.00400405	48.4822
0.00402717	48.6223
0.00405042	48.7629
0.0040738	48.9039
0.00409732	49.0453
0.00412098	49.1871
0.00414477	49.3293
0.00416869	49.4719
0.00419276	49.6149
0.00421697	49.7584
0.00424131	49.9022
0.0042658	50.0465
0.00429042	50.1912
0.00431519	50.3362
0.0043401	50.4818
0.00436516	50.6277
0.00439036	50.774
0.0044157	50.9208
0.0044412	51.068
0.00446684	51.2156
0.00449262	51.3637
0.00451856	51.5122
0.00454465	51.6611
0.00457088	51.8104
0.00459727	51.9602
0.00462381	52.1104
0.0046505	52.261
0.00467735	52.412
0.00470435	52.5635
0.00473151	52.7154
0.00475883	52.8678
0.0047863	53.0206
0.00481393	53.1739
0.00484172	53.3276
0.00486968	53.4817
0.00489779	53.6363
0.00492606	53.7913
0.0049545	53.9468
0.0049831	54.1027
0.00501187	54.2591
0.00504081	54.4159
0.00506991	54.5732
0.00509918	54.7309
0.00512861	54.8891
0.00515822	55.0477
0.005188	55.2068
0.00521795	55.3663
0.00524807	55.5264
0.00527837	55.6869
0.00530884	55.8478
0.00533949	56.0092
0.00537032	56.171
0.00540132	56.3334
0.0054325	56.4962
0.00546387	56.6594
0.00549541	56.8232
0.00552713	56.9874
0.00555904	57.1521
0.00559114	57.3172
0.00562341	57.4829
0.00565588	57.649
0.00568853	57.8156
0.00572137	57.9827
0.0057544	58.1502
0.00578762	58.3183
0.00582103	58.4868
0.00585464	58.6558
0.00588844	58.8253
0.00592243	59.1429
0.00595662	59.3134
0.00599101	59.4843
0.0060256	59.6558
0.00606038	59.8278
0.00609537	60.0002
0.00613056	60.1732
0.00616595	60.3466
0.00620155	60.5205
0.00623735	60.695
0.00627336	60.8699
0.00630957	61.0454
0.006346	61.2213
0.00638263	61.3978
0.00641948	61.5748
0.00645654	61.7522
0.00649382	61.9303
0.00653131	62.1087
0.00656901	62.2878
0.00660693	62.4673
0.00664508	62.6474
0.00668344	62.8279
0.00672202	63.009
0.00676083	63.1906
0.00679986	63.3728
0.00683912	63.5554
0.0068786	63.7386
0.00691831	63.9223
0.00695825	64.1066
0.00699842	64.2914
0.00703882	64.4767
0.00707946	64.6625
0.00712033	64.8489
0.00716143	65.0358
0.00720278	65.2233
0.00724436	65.4113
0.00728618	65.5998
0.00732825	65.7889
0.00737055	65.9785
0.0074131	66.1687
0.0074559	66.3594
0.00749894	66.5507
0.00754223	66.7425
0.00758578	66.9349
0.00762957	67.1278
0.00767361	67.3213
0.00771792	67.5154
0.00776247	67.71
0.00780728	67.9052
0.00785236	68.1009
0.00789769	68.2972
0.00794328	68.494
0.00798914	68.6915
0.00803526	68.8895
0.00808165	69.088
0.00812831	69.2872
0.00817523	69.4869
0.00822243	69.6872
0.0082699	69.888
0.00831764	70.0895
0.00836566	70.2915
0.00841395	70.4941
0.00846253	70.6973
0.00851138	70.9011
0.00856052	71.1054
0.00860994	71.3104
0.00865964	71.5159
0.00870964	71.722
0.00875992	71.9288
0.00881049	72.1361
0.00886135	72.3441
0.00891251	72.5526
0.00896396	72.7617
0.00901571	72.9714
0.00906776	73.1817
0.00912011	73.3927
0.00917276	73.6042
0.00922571	73.8164
0.00927897	74.0291
0.00933254	74.2425
0.00938642	74.4565
0.00944061	74.6711
0.00949511	74.8863
0.00954993	75.1022
0.00960506	75.3187
0.00966051	75.5358
0.00971628	75.7535
0.00977237	75.9718
0.00982879	76.1908
0.00988553	76.4104
0.0099426	76.6307
0.01	76.8516
0.0100577	77.0731
0.0101158	77.2952
0.0101742	77.518
0.0102329	77.7415
0.010292	77.9655
0.0103514	78.1903
0.0104112	78.4156
0.0104713	78.6417
0.0105317	78.8684
0.0105925	79.0957
0.0106537	79.3237
0.0107152	79.5523
0.0107771	79.7816
0.0108393	80.0115
0.0109018	80.2422
0.0109648	80.4735
0.0110281	80.7054
0.0110917	80.9381
0.0111558	81.1713
0.0112202	81.4053
0.011285	81.6399
0.0113501	81.8753
0.0114156	82.1113
0.0114815	82.3479
0.0115478	82.5853
0.0116145	82.8233
0.0116815	83.0621
0.011749	83.3014
0.0118168	83.5416
0.011885	83.7824
0.0119536	84.0239
0.0120226	84.266
0.0120921	84.509
0.0121619	84.7525
0.0122321	84.9968
0.0123027	85.2418
0.0123737	85.4875
0.0124451	85.7339
0.012517	85.981
0.0125893	86.2289
0.0126619	86.4774
0.012735	86.7267
0.0128086	86.9767
0.0128825	87.2274
0.0129569	87.4788
0.0130317	87.7309
0.0131069	87.9838
0.0131826	88.2374
0.0132587	88.4918
0.0133352	88.7468
0.0134122	89.0026
0.0134896	89.2591
0.0135675	89.5165
0.0136458	89.7744
0.0137246	90.0332
0.0138038	90.2927
0.0138835	90.553
0.0139637	90.814
0.0140443	91.0757
0.0141254	91.3383
0.0142069	91.6015
0.0142889	91.8656
0.0143714	92.1303
0.0144544	92.3959
0.0145378	92.6622
0.0146218	92.9293
0.0147062	93.1971
0.0147911	93.4658
0.0148765	93.7352
0.0149624	94.0054
0.0150487	94.2763
0.0151356	94.5481
0.015223	94.8206
0.0153109	95.0939
0.0153993	95.368
0.0154882	95.6429
0.0155776	95.9186
0.0156675	96.1951
0.015758	96.4723
0.0158489	96.7504
0.0159404	97.0293
0.0160325	97.3089
0.016125	97.5894
0.0162181	97.8707
0.0163117	98.1528
0.0164059	98.4357
0.0165006	98.7194
0.0165959	99.004
0.0166917	99.2894
0.016788	99.5756
0.016885	99.8626
0.0169824	100.15
0.0170805	100.439
0.0171791	100.729
0.0172783	101.019
0.017378	101.31
0.0174783	101.602
0.0175792	101.895
0.0176807	102.189
0.0177828	102.483
0.0178855	102.779
0.0179887	103.075
0.0180926	103.372
0.018197	103.67
0.0183021	103.969
0.0184077	104.268
0.018514	104.569
0.0186209	104.87
0.0187284	105.173
0.0188365	105.476
0.0189452	105.78
0.0190546	106.085
0.0191646	106.391
0.0192752	106.697
0.0193865	107.005
0.0194984	107.313
0.019611	107.623
0.0197242	107.933
0.0198381	108.244
0.0199526	108.556
0.0200678	108.869
0.0201837	109.182
0.0203002	109.497
0.0204174	109.813
0.0205353	110.129
0.0206538	110.447
0.020773	110.765
0.020893	111.084
0.0210136	111.404
0.0211349	111.726
0.0212569	112.048
0.0213796	112.371
0.021503	112.695
0.0216272	113.019
0.021752	113.345
0.0218776	113.672
0.0220039	114
0.0221309	114.328
0.0222587	114.658
0.0223872	114.988
0.0225165	115.32
0.0226464	115.652
0.0227772	115.985
0.0229087	116.32
0.0230409	116.655
0.0231739	116.991
0.0233077	117.328
0.0234423	117.667
0.0235776	118.006
0.0237137	118.346
0.0238506	118.687
0.0239883	119.029
0.0241268	119.372
0.0242661	119.716
0.0244062	120.061
0.0245471	120.407
0.0246888	120.754
0.0248313	121.102
0.0249747	121.452
0.0251189	121.802
0.0252639	122.153
0.0254097	122.505
0.0255564	122.858
0.025704	123.212
0.0258523	123.567
0.0260016	123.923
0.0261517	124.281
0.0263027	124.639
0.0264545	124.998
0.0266073	125.358
0.0267609	125.72
0.0269153	126.082
0.0270707	126.446
0.027227	126.81
0.0273842	127.176
0.0275423	127.542
0.0277013	127.91
0.0278612	128.278
0.0280221	128.648
0.0281838	129.019
0.0283465	129.391
0.0285102	129.763
0.0286748	130.138
0.0288403	130.513
0.0290068	130.889
0.0291743	131.266
0.0293427	131.645
0.0295121	132.024
0.0296825	132.405
0.0298538	132.786
0.0300262	133.169
0.0301995	133.553
0.0303739	133.938
0.0305492	134.324
0.0307256	134.711
0.030903	135.099
0.0310814	135.488
0.0312608	135.879
0.0314413	136.271
0.0316228	136.664
0.0318053	137.057
0.031989	137.453
0.0321736	137.849
0.0323594	138.246
0.0325462	138.645
0.0327341	139.044
0.032923	139.445
0.0331131	139.847
0.0333043	140.25
0.0334965	140.654
0.0336899	141.06
0.0338844	141.466
0.03408	141.874
0.0342768	142.283
0.0344747	142.693
0.0346737	143.104
0.0348739	143.517
0.0350752	143.931
0.0352777	144.345
0.0354813	144.762
0.0356862	145.179
0.0358922	145.597
0.0360994	146.017
0.0363078	146.437
0.0365174	146.86
0.0367282	147.283
0.0369403	147.708
0.0371535	148.133
0.037368	148.56
0.0375837	148.989
0.0378007	149.418
0.0380189	149.849
0.0382384	150.28
0.0384592	150.714
0.0386812	151.148
0.0389045	151.584
0.0391291	152.021
0.039355	152.459
0.0395822	152.898
0.0398107	153.339
0.0400405	153.781
0.0402717	154.224
0.0405042	154.669
0.040738	155.115
0.0409732	155.562
0.0412098	156.01
0.0414477	156.46
0.0416869	156.911
0.0419276	157.363
0.0421697	157.817
0.0424131	158.271
0.042658	158.728
0.0429042	159.185
0.0431519	159.644
0.043401	160.104
0.0436516	160.566
0.0439036	161.028
0.044157	161.493
0.044412	161.958
0.0446684	162.425
0.0449262	162.893
0.0451856	163.362
0.0454465	163.833
0.0457088	164.306
0.0459727	164.779
0.0462381	165.254
0.046505	165.731
0.0467735	166.208
0.0470435	166.687
0.0473151	167.168
0.0475883	167.649
0.047863	168.133
0.0481393	168.617
0.0484172	169.103
0.0486968	169.591
0.0489779	170.08
0.0492606	170.57
0.049545	171.062
0.049831	171.555
0.0501187	172.049
0.0504081	172.545
0.0506991	173.042
0.0509918	173.541
0.0512861	174.041
0.0515822	174.543
0.05188	175.046
0.0521795	175.551
0.0524807	176.057
0.0527837	176.564
0.0530884	177.073
0.0533949	177.584
0.0537032	178.095
0.0540132	178.609
0.054325	179.123
0.0546387	179.64
0.0549541	180.158
0.0552713	180.677
0.0555904	181.198
0.0559114	181.72
0.0562341	182.244
0.0565588	182.769
0.0568853	183.296
0.0572137	183.824
0.057544	184.354
0.0578762	184.885
0.0582103	185.418
0.0585464	185.953
0.0588844	186.489
0.0592243	187.026
0.0595662	187.565
0.0599101	188.106
0.060256	188.648
0.0606038	189.192
0.0609537	189.737
0.0613056	190.284
0.0616595	190.833
0.0620155	191.383
0.0623735	191.934
0.0627336	192.488
0.0630957	193.042
0.06346	193.599
0.0638263	194.157
0.0641948	194.717
0.0645654	195.278
0.0649382	195.841
0.0653131	196.405
0.0656901	196.971
0.0660693	197.539
0.0664508	198.108
0.0668344	198.679
0.0672202	199.252
0.0676083	199.826
0.0679986	200.402
0.0683912	200.98
0.068786	201.559
0.0691831	202.14
0.0695825	202.723
0.0699842	203.307
0.0703882	203.893
0.0707946	204.481
0.0712033	205.07
0.0716143	205.662
0.0720278	206.254
0.0724436	206.849
0.0728618	207.445
0.0732825	208.043
0.0737055	208.643
0.074131	209.244
0.074559	209.847
0.0749894	210.452
0.0754223	211.058
0.0758578	211.667
0.0762957	212.277
0.0767361	212.889
0.0771792	213.502
0.0776247	214.118
0.0780728	214.735
0.0785236	215.354
0.0789769	215.975
0.0794328	216.597
0.0798914	217.222
0.0803526	217.848
0.0808165	218.475
0.0812831	219.105
0.0817523	219.737
0.0822243	220.37
0.082699	221.006
0.0831764	221.642
0.0836566	222.281
0.0841395	222.922
0.0846253	223.564
0.0851138	224.209
0.0856052	224.855
0.0860994	225.503
0.0865964	226.153
0.0870964	226.805
0.0875992	227.459
0.0881049	228.114
0.0886135	228.772
0.0891251	229.431
0.0896396	230.093
0.0901571	230.756
0.0906776	231.421
0.0912011	232.088
0.0917276	232.757
0.0922571	233.428
0.0927897	234.101
0.0933254	234.776
0.0938642	235.452
0.0944061	236.131
0.0949511	236.811
0.0954993	237.494
0.0960506	238.178
0.0966051	238.865
0.0971628	239.554
0.0977237	240.244
0.0982879	240.937
0.0988553	241.631
0.099426	242.328
0.1	243.026
0.100577	243.727
0.101158	244.429
0.101742	245.134
0.102329	245.84
0.10292	246.549
0.103514	247.259
0.104112	247.972
0.104713	248.687
0.105317	249.404
0.105925	250.122
0.106537	250.843
0.107152	251.566
0.107771	252.291
0.108393	253.019
0.109018	253.748
0.109648	254.479
0.110281	255.213
0.110917	255.949
0.111558	256.686
0.112202	257.426
0.11285	258.168
0.113501	258.912
0.114156	259.659
0.114815	260.407
0.115478	261.158
0.116145	261.91
0.116815	262.665
0.11749	263.423
0.118168	264.182
0.11885	264.943
0.119536	265.707
0.120226	266.473
0.120921	267.241
0.121619	268.011
0.122321	268.783
0.123027	269.558
0.123737	270.335
0.124451	271.114
0.12517	271.896
0.125893	272.679
0.126619	273.465
0.12735	274.254
0.128086	275.044
0.128825	275.837
0.129569	276.632
0.130317	277.429
0.131069	278.229
0.131826	279.031
0.132587	279.835
0.133352	280.642
0.134122	281.451
0.134896	282.262
0.135675	283.076
0.136458	283.892
0.137246	284.71
0.138038	285.531
0.138835	286.354
0.139637	287.179
0.140443	288.007
0.141254	288.837
0.142069	289.669
0.142889	290.504
0.143714	291.342
0.144544	292.182
0.145378	293.024
0.146218	293.868
0.147062	294.715
0.147911	295.565
0.148765	296.417
0.149624	297.271
0.150487	298.128
0.151356	298.987
0.15223	299.849
0.153109	300.713
0.153993	301.58
0.154882	302.45
0.155776	303.321
0.156675	304.196
0.15758	305.072
0.158489	305.952
0.159404	306.834
0.160325	307.718
0.16125	308.605
0.162181	309.494
0.163117	310.387
0.164059	311.281
0.165006	312.178
0.165959	313.078
0.166917	313.981
0.16788	314.886
0.16885	315.793
0.169824	316.703
0.170805	317.616
0.171791	318.532
0.172783	319.45
0.17378	320.371
0.174783	321.294
0.175792	322.22
0.176807	323.149
0.177828	324.08
0.178855	325.015
0.179887	325.952
0.180926	326.891
0.18197	327.833
0.183021	328.778
0.184077	329.726
0.18514	330.676
0.186209	331.629
0.187284	332.585
0.188365	333.543
0.189452	334.505
0.190546	335.469
0.191646	336.436
0.192752	337.406
0.193865	338.379
0.194984	339.354
0.19611	340.332
0.197242	341.313
0.198381	342.296
0.199526	343.283
0.200678	344.273
0.201837	345.265
0.203002	346.26
0.204174	347.258
0.205353	348.259
0.206538	349.263
0.20773	350.27
0.20893	351.279
0.210136	352.292
0.211349	353.307
0.212569	354.326
0.213796	355.347
0.21503	356.371
0.216272	357.399
0.21752	358.428
0.218776	359.462
0.220039	360.498
0.221309	361.537
0.222587	362.579
0.223872	363.624
0.225165	364.672
0.226464	365.723
0.227772	366.778
0.229087	367.835
0.230409	368.895
0.231739	369.958
0.233077	371.024
0.234423	372.094
0.235776	373.166
0.237137	374.242
0.238506	375.321
0.239883	376.403
0.241268	377.488
0.242661	378.576
0.244062	379.667
0.245471	380.761
0.246888	381.859
0.248313	382.959
0.249747	384.063
0.251189	385.17
0.252639	386.28
0.254097	387.394
0.255564	388.511
0.25704	389.63
0.258523	390.753
0.260016	391.88
0.261517	393.009
0.263027	394.142
0.264545	395.278
0.266073	396.418
0.267609	397.56
0.269153	398.706
0.270707	399.855
0.27227	401.008
0.273842	402.164
0.275423	403.323
0.277013	404.485
0.278612	405.651
0.280221	406.821
0.281838	407.993
0.283465	409.169
0.285102	410.349
0.286748	411.531
0.288403	412.717
0.290068	413.907
0.291743	415.1
0.293427	416.297
0.295121	417.497
0.296825	418.7
0.298538	419.907
0.300262	421.12
0.301995	422.354
0.303739	423.592
0.305492	424.835
0.307256	426.082
0.30903	427.334
0.310814	428.591
0.312608	429.852
0.314413	431.117
0.316228	432.387
0.318053	433.662
0.31989	434.942
0.321736	436.225
0.323594	437.514
0.325462	438.807
0.327341	440.105
0.32923	441.407
0.331131	442.714
0.333043	444.026
0.334965	445.342
0.336899	446.663
0.338844	447.988
0.3408	449.319
0.342768	450.653
0.344747	451.993
0.346737	453.337
0.348739	454.686
0.350752	456.054
0.352777	457.45
0.354813	458.852
0.356862	460.259
0.358922	461.673
0.360994	463.077
0.363078	464.469
0.365174	465.867
0.367282	467.272
0.369403	468.682
0.371535	470.097
0.37368	471.518
0.375837	472.945
0.378007	474.378
0.380189	475.817
0.382384	477.262
0.384592	478.712
0.386812	480.168
0.389045	481.629
0.391291	483.097
0.39355	484.57
0.395822	486.05
0.398107	487.534
0.400405	489.033
0.402717	490.58
0.405042	492.135
0.40738	493.697
0.409732	495.266
0.412098	496.841
0.414477	498.424
0.416869	500.014
0.419276	501.611
0.421697	503.193
0.424131	504.771
0.42658	506.357
0.429042	507.949
0.431519	509.548
0.43401	511.154
0.436516	512.766
0.439036	514.386
0.44157	516.012
0.44412	517.644
0.446684	519.283
0.449262	520.929
0.451856	522.581
0.454465	524.24
0.457088	525.905
0.459727	527.577
0.462381	529.254
0.46505	530.939
0.467735	532.629
0.470435	534.326
0.473151	536.029
0.475883	537.738
0.47863	539.452
0.481393	541.153
0.484172	542.84
0.486968	544.532
0.489779	546.231
0.492606	547.934
0.49545	549.644
0.49831	551.358
0.501187	553.079
0.504081	554.804
0.506991	556.536
0.509918	558.272
0.512861	560.014
0.515822	561.762
0.5188	563.514
0.521795	565.271
0.524807	567.035
0.527837	568.803
0.530884	570.576
0.533949	572.354
0.537032	574.137
0.540132	575.925
0.54325	577.718
0.546387	579.516
0.549541	581.318
0.552713	583.125
0.555904	584.936
0.559114	586.752
0.562341	588.567
0.565588	590.383
0.568853	592.204
0.572137	594.029
0.57544	595.858
0.578762	597.692
0.582103	599.53
0.585464	601.372
0.588844	603.218
0.592243	605.068
0.595662	606.922
0.599101	608.78
0.60256	610.643
0.606038	612.508
0.609537	614.378
0.613056	616.252
0.616595	618.129
0.620155	620.01
0.623735	621.895
