E [MeV]	dEdx [keV/microm]
0.001	32.2856
0.00100577	32.3794
0.00101158	32.4735
0.00101742	32.5678
0.00102329	32.6625
0.0010292	32.7574
0.00103514	32.8526
0.00104112	32.948
0.00104713	33.0438
0.00105317	33.1398
0.00105925	33.2361
0.00106537	33.3326
0.00107152	33.4295
0.00107771	33.5266
0.00108393	33.624
0.00109018	33.7216
0.00109648	33.8196
0.00110281	33.9179
0.00110917	34.0164
0.00111558	34.1152
0.00112202	34.2143
0.0011285	34.3137
0.00113501	34.4133
0.00114156	34.5133
0.00114815	34.6135
0.00115478	34.7141
0.00116145	34.8149
0.00116815	34.916
0.0011749	35.0174
0.00118168	35.1191
0.0011885	35.2211
0.00119536	35.3234
0.00120226	35.426
0.00120921	35.5288
0.00121619	35.632
0.00122321	35.7355
0.00123027	35.8392
0.00123737	35.9433
0.00124451	36.0477
0.0012517	36.1523
0.00125893	36.2573
0.00126619	36.3626
0.0012735	36.4682
0.00128086	36.5741
0.00128825	36.6802
0.00129569	36.7867
0.00130317	36.8935
0.00131069	37.0006
0.00131826	37.108
0.00132587	37.2158
0.00133352	37.3238
0.00134122	37.4321
0.00134896	37.5408
0.00135675	37.6498
0.00136458	37.759
0.00137246	37.8687
0.00138038	37.9786
0.00138835	38.0888
0.00139637	38.1993
0.00140443	38.3102
0.00141254	38.4214
0.00142069	38.5329
0.00142889	38.6448
0.00143714	38.7569
0.00144544	38.8694
0.00145378	38.9822
0.00146218	39.0953
0.00147062	39.2088
0.00147911	39.3225
0.00148765	39.4366
0.00149624	39.5511
0.00150487	39.6658
0.00151356	39.7809
0.0015223	39.8963
0.00153109	40.0121
0.00153993	40.1282
0.00154882	40.2446
0.00155776	40.3614
0.00156675	40.4785
0.0015758	40.5959
0.00158489	40.7137
0.00159404	40.8318
0.00160325	40.9503
0.0016125	41.0691
0.00162181	41.1882
0.00163117	41.3077
0.00164059	41.4275
0.00165006	41.5477
0.00165959	41.6682
0.00166917	41.7891
0.0016788	41.9103
0.0016885	42.0318
0.00169824	42.1538
0.00170805	42.276
0.00171791	42.3987
0.00172783	42.5217
0.0017378	42.645
0.00174783	42.7686
0.00175792	42.8927
0.00176807	43.0171
0.00177828	43.1419
0.00178855	43.267
0.00179887	43.3924
0.00180926	43.5183
0.0018197	43.6445
0.00183021	43.771
0.00184077	43.8979
0.0018514	44.0252
0.00186209	44.1529
0.00187284	44.2809
0.00188365	44.4093
0.00189452	44.5381
0.00190546	44.6672
0.00191646	44.7968
0.00192752	44.9266
0.00193865	45.0569
0.00194984	45.1875
0.0019611	45.3185
0.00197242	45.4499
0.00198381	45.5817
0.00199526	45.7139
0.00200678	45.8464
0.00201837	45.9793
0.00203002	46.1126
0.00204174	46.2463
0.00205353	46.3803
0.00206538	46.5148
0.0020773	46.6496
0.0020893	46.7848
0.00210136	46.9204
0.00211349	47.0565
0.00212569	47.1928
0.00213796	47.3296
0.0021503	47.4668
0.00216272	47.6044
0.0021752	47.7424
0.00218776	47.8808
0.00220039	48.0195
0.00221309	48.1587
0.00222587	48.2983
0.00223872	48.4383
0.00225165	48.5787
0.00226464	48.7194
0.00227772	48.8606
0.00229087	49.0022
0.00230409	49.1442
0.00231739	49.2866
0.00233077	49.4294
0.00234423	49.5727
0.00235776	49.7164
0.00237137	49.8604
0.00238506	50.0049
0.00239883	50.1498
0.00241268	50.2951
0.00242661	50.4409
0.00244062	50.587
0.00245471	50.7336
0.00246888	50.8806
0.00248313	51.028
0.00249747	51.1758
0.00251189	51.3241
0.00252639	51.4728
0.00254097	51.6219
0.00255564	51.7715
0.0025704	51.9215
0.00258523	52.0719
0.00260016	52.2228
0.00261517	52.374
0.00263027	52.5258
0.00264545	52.6779
0.00266073	52.8305
0.00267609	52.9836
0.00269153	53.1371
0.00270707	53.291
0.0027227	53.4454
0.00273842	53.6002
0.00275423	53.7554
0.00277013	53.9111
0.00278612	54.0673
0.00280221	54.2239
0.00281838	54.3809
0.00283465	54.5384
0.00285102	54.6964
0.00286748	54.8549
0.00288403	55.0137
0.00290068	55.173
0.00291743	55.3328
0.00293427	55.4931
0.00295121	55.6538
0.00296825	55.815
0.00298538	55.9766
0.00300262	56.1387
0.00301995	56.3013
0.00303739	56.4644
0.00305492	56.6279
0.00307256	56.7919
0.0030903	56.9563
0.00310814	57.1212
0.00312608	57.2867
0.00314413	57.4525
0.00316228	57.6189
0.00318053	57.7857
0.0031989	57.9531
0.00321736	58.1209
0.00323594	58.2892
0.00325462	58.4579
0.00327341	58.6272
0.0032923	58.7969
0.00331131	58.9672
0.00333043	59.1379
0.00334965	59.3092
0.00336899	59.4809
0.00338844	59.6531
0.003408	59.8258
0.00342768	59.999
0.00344747	60.1727
0.00346737	60.3469
0.00348739	60.5216
0.00350752	60.6968
0.00352777	60.8725
0.00354813	61.0488
0.00356862	61.2254
0.00358922	61.4027
0.00360994	61.5804
0.00363078	61.7587
0.00365174	61.9375
0.00367282	62.1168
0.00369403	62.2966
0.00371535	62.477
0.0037368	62.6578
0.00375837	62.8391
0.00378007	63.021
0.00380189	63.2034
0.00382384	63.3864
0.00384592	63.5698
0.00386812	63.7538
0.00389045	63.9384
0.00391291	64.1234
0.0039355	64.309
0.00395822	64.4952
0.00398107	64.6818
0.00400405	64.869
0.00402717	65.0567
0.00405042	65.2451
0.0040738	65.4338
0.00409732	65.6232
0.00412098	65.8131
0.00414477	66.0036
0.00416869	66.1946
0.00419276	66.3862
0.00421697	66.5783
0.00424131	66.771
0.0042658	66.9642
0.00429042	67.158
0.00431519	67.3523
0.0043401	67.5472
0.00436516	67.7426
0.00439036	67.9387
0.0044157	68.1353
0.0044412	68.3324
0.00446684	68.5302
0.00449262	68.7284
0.00451856	68.9273
0.00454465	69.1267
0.00457088	69.3268
0.00459727	69.5273
0.00462381	69.7285
0.0046505	69.9302
0.00467735	70.1326
0.00470435	70.3355
0.00473151	70.539
0.00475883	70.7431
0.0047863	70.9477
0.00481393	71.153
0.00484172	71.3588
0.00486968	71.5653
0.00489779	71.7723
0.00492606	71.98
0.0049545	72.1882
0.0049831	72.3971
0.00501187	72.6065
0.00504081	72.8165
0.00506991	73.0272
0.00509918	73.2384
0.00512861	73.4503
0.00515822	73.6628
0.005188	73.8759
0.00521795	74.0896
0.00524807	74.3039
0.00527837	74.5188
0.00530884	74.7344
0.00533949	74.9506
0.00537032	75.1674
0.00540132	75.3848
0.0054325	75.6029
0.00546387	75.8215
0.00549541	76.0408
0.00552713	76.2608
0.00555904	76.4813
0.00559114	76.7026
0.00562341	76.9244
0.00565588	77.1469
0.00568853	77.37
0.00572137	77.5938
0.0057544	77.8182
0.00578762	78.0433
0.00582103	78.269
0.00585464	78.4954
0.00588844	78.7224
0.00592243	78.9501
0.00595662	79.1784
0.00599101	79.4074
0.0060256	79.637
0.00606038	79.8673
0.00609537	80.0983
0.00613056	80.3299
0.00616595	80.5622
0.00620155	80.7952
0.00623735	81.0288
0.00627336	81.2632
0.00630957	81.4982
0.006346	81.7338
0.00638263	81.9702
0.00641948	82.2072
0.00645654	82.445
0.00649382	82.6833
0.00653131	82.9224
0.00656901	83.1622
0.00660693	83.4027
0.00664508	83.6438
0.00668344	83.8857
0.00672202	84.1283
0.00676083	84.3715
0.00679986	84.6154
0.00683912	84.8601
0.0068786	85.1055
0.00691831	85.3515
0.00695825	85.5983
0.00699842	85.8458
0.00703882	86.094
0.00707946	86.3429
0.00712033	86.5926
0.00716143	86.8429
0.00720278	87.094
0.00724436	87.3458
0.00728618	87.5983
0.00732825	87.8516
0.00737055	88.1056
0.0074131	88.3603
0.0074559	88.6157
0.00749894	88.8719
0.00754223	89.1288
0.00758578	89.3865
0.00762957	89.6449
0.00767361	89.9041
0.00771792	90.164
0.00776247	90.4246
0.00780728	90.686
0.00785236	90.9482
0.00789769	91.2111
0.00794328	91.4748
0.00798914	91.7392
0.00803526	92.0044
0.00808165	92.2703
0.00812831	92.537
0.00817523	92.8046
0.00822243	93.0728
0.0082699	93.3418
0.00831764	93.6117
0.00836566	93.8822
0.00841395	94.1536
0.00846253	94.4258
0.00851138	94.6987
0.00856052	94.9724
0.00860994	95.2469
0.00865964	95.5222
0.00870964	95.7983
0.00875992	96.0752
0.00881049	96.3529
0.00886135	96.6314
0.00891251	96.9107
0.00896396	97.1908
0.00901571	97.4717
0.00906776	97.7534
0.00912011	98.0359
0.00917276	98.3193
0.00922571	98.6034
0.00927897	98.8884
0.00933254	99.1742
0.00938642	99.4609
0.00944061	99.7482
0.00949511	100.037
0.00954993	100.326
0.00960506	100.616
0.00966051	100.906
0.00971628	101.198
0.00977237	101.491
0.00982879	101.784
0.00988553	102.078
0.0099426	102.373
0.01	102.669
0.0100577	102.965
0.0101158	103.263
0.0101742	103.561
0.0102329	103.861
0.010292	104.161
0.0103514	104.462
0.0104112	104.764
0.0104713	105.153
0.0105317	105.457
0.0105925	105.85
0.0106537	106.155
0.0107152	106.461
0.0107771	106.858
0.0108393	107.166
0.0109018	107.475
0.0109648	107.785
0.0110281	108.095
0.0110917	108.407
0.0111558	108.72
0.0112202	109.033
0.011285	109.347
0.0113501	109.662
0.0114156	109.979
0.0114815	110.295
0.0115478	110.613
0.0116145	110.932
0.0116815	111.252
0.011749	111.572
0.0118168	111.894
0.011885	112.217
0.0119536	112.54
0.0120226	112.864
0.0120921	113.19
0.0121619	113.516
0.0122321	113.843
0.0123027	114.171
0.0123737	114.501
0.0124451	114.83
0.012517	115.161
0.0125893	115.494
0.0126619	115.826
0.012735	116.16
0.0128086	116.495
0.0128825	116.831
0.0129569	117.167
0.0130317	117.505
0.0131069	117.844
0.0131826	118.183
0.0132587	118.524
0.0133352	118.866
0.0134122	119.208
0.0134896	119.552
0.0135675	119.897
0.0136458	120.242
0.0137246	120.589
0.0138038	120.936
0.0138835	121.285
0.0139637	121.634
0.0140443	121.985
0.0141254	122.337
0.0142069	122.689
0.0142889	123.043
0.0143714	123.398
0.0144544	123.753
0.0145378	124.11
0.0146218	124.468
0.0147062	124.826
0.0147911	125.186
0.0148765	125.547
0.0149624	125.909
0.0150487	126.272
0.0151356	126.636
0.015223	127.001
0.0153109	127.367
0.0153993	127.734
0.0154882	128.102
0.0155776	128.472
0.0156675	128.842
0.015758	129.213
0.0158489	129.586
0.0159404	129.959
0.0160325	130.334
0.016125	130.71
0.0162181	131.086
0.0163117	131.464
0.0164059	131.843
0.0165006	132.223
0.0165959	132.604
0.0166917	132.987
0.016788	133.37
0.016885	133.754
0.0169824	134.14
0.0170805	134.526
0.0171791	134.914
0.0172783	135.303
0.017378	135.693
0.0174783	136.084
0.0175792	136.476
0.0176807	136.87
0.0177828	137.264
0.0178855	137.66
0.0179887	138.056
0.0180926	138.455
0.018197	138.853
0.0183021	139.254
0.0184077	139.655
0.018514	140.058
0.0186209	140.461
0.0187284	140.866
0.0188365	141.272
0.0189452	141.679
0.0190546	142.088
0.0191646	142.497
0.0192752	142.908
0.0193865	143.32
0.0194984	143.733
0.019611	144.148
0.0197242	144.563
0.0198381	144.98
0.0199526	145.398
0.0200678	145.817
0.0201837	146.237
0.0203002	146.659
0.0204174	147.081
0.0205353	147.505
0.0206538	147.93
0.020773	148.357
0.020893	148.784
0.0210136	149.213
0.0211349	149.643
0.0212569	150.075
0.0213796	150.507
0.021503	150.941
0.0216272	151.376
0.021752	151.812
0.0218776	152.25
0.0220039	152.689
0.0221309	153.129
0.0222587	153.57
0.0223872	154.013
0.0225165	154.457
0.0226464	154.902
0.0227772	155.348
0.0229087	155.796
0.0230409	156.245
0.0231739	156.696
0.0233077	157.147
0.0234423	157.6
0.0235776	158.055
0.0237137	158.51
0.0238506	158.967
0.0239883	159.425
0.0241268	159.885
0.0242661	160.346
0.0244062	160.808
0.0245471	161.271
0.0246888	161.736
0.0248313	162.202
0.0249747	162.67
0.0251189	163.139
0.0252639	163.609
0.0254097	164.081
0.0255564	164.554
0.025704	165.028
0.0258523	165.503
0.0260016	165.981
0.0261517	166.459
0.0263027	166.939
0.0264545	167.42
0.0266073	167.902
0.0267609	168.387
0.0269153	168.872
0.0270707	169.359
0.027227	169.847
0.0273842	170.336
0.0275423	170.827
0.0277013	171.32
0.0278612	171.814
0.0280221	172.309
0.0281838	172.805
0.0283465	173.303
0.0285102	173.803
0.0286748	174.304
0.0288403	174.806
0.0290068	175.31
0.0291743	175.815
0.0293427	176.322
0.0295121	176.83
0.0296825	177.34
0.0298538	177.851
0.0300262	178.364
0.0301995	178.878
0.0303739	179.394
0.0305492	179.911
0.0307256	180.429
0.030903	180.949
0.0310814	181.471
0.0312608	181.994
0.0314413	182.519
0.0316228	183.045
0.0318053	183.572
0.031989	184.102
0.0321736	184.632
0.0323594	185.164
0.0325462	185.698
0.0327341	186.233
0.032923	186.77
0.0331131	187.309
0.0333043	187.848
0.0334965	188.39
0.0336899	188.932
0.0338844	189.477
0.03408	190.023
0.0342768	190.571
0.0344747	191.12
0.0346737	191.671
0.0348739	192.224
0.0350752	192.778
0.0352777	193.333
0.0354813	193.891
0.0356862	194.449
0.0358922	195.01
0.0360994	195.572
0.0363078	196.136
0.0365174	196.701
0.0367282	197.268
0.0369403	197.837
0.0371535	198.407
0.037368	198.979
0.0375837	199.552
0.0378007	200.128
0.0380189	200.705
0.0382384	201.283
0.0384592	201.863
0.0386812	202.445
0.0389045	203.029
0.0391291	203.614
0.039355	204.201
0.0395822	204.789
0.0398107	205.379
0.0400405	205.972
0.0402717	206.565
0.0405042	207.16
0.040738	207.758
0.0409732	208.357
0.0412098	208.957
0.0414477	209.559
0.0416869	210.164
0.0419276	210.769
0.0421697	211.376
0.0424131	211.986
0.042658	212.597
0.0429042	213.21
0.0431519	213.824
0.043401	214.44
0.0436516	215.059
0.0439036	215.679
0.044157	216.3
0.044412	216.924
0.0446684	217.549
0.0449262	218.176
0.0451856	218.805
0.0454465	219.436
0.0457088	220.068
0.0459727	220.702
0.0462381	221.339
0.046505	221.976
0.0467735	222.617
0.0470435	223.258
0.0473151	223.902
0.0475883	224.547
0.047863	225.194
0.0481393	225.844
0.0484172	226.494
0.0486968	227.147
0.0489779	227.802
0.0492606	228.458
0.049545	229.117
0.049831	229.777
0.0501187	230.439
0.0504081	231.104
0.0506991	231.77
0.0509918	232.438
0.0512861	233.108
0.0515822	233.78
0.05188	234.454
0.0521795	235.129
0.0524807	235.807
0.0527837	236.487
0.0530884	237.169
0.0533949	237.852
0.0537032	238.538
0.0540132	239.225
0.054325	239.915
0.0546387	240.606
0.0549541	241.3
0.0552713	241.995
0.0555904	242.693
0.0559114	243.392
0.0562341	244.094
0.0565588	244.798
0.0568853	245.503
0.0572137	246.211
0.057544	246.921
0.0578762	247.632
0.0582103	248.346
0.0585464	249.062
0.0588844	249.78
0.0592243	250.5
0.0595662	251.222
0.0599101	251.946
0.060256	252.672
0.0606038	253.4
0.0609537	254.13
0.0613056	254.863
0.0616595	255.598
0.0620155	256.334
0.0623735	257.073
0.0627336	257.814
0.0630957	258.558
0.06346	259.303
0.0638263	260.05
0.0641948	260.8
0.0645654	261.551
0.0649382	262.305
0.0653131	263.061
0.0656901	263.82
0.0660693	264.58
0.0664508	265.343
0.0668344	266.107
0.0672202	266.875
0.0676083	267.644
0.0679986	268.415
0.0683912	269.189
0.068786	269.965
0.0691831	270.743
0.0695825	271.523
0.0699842	272.306
0.0703882	273.091
0.0707946	273.878
0.0712033	274.667
0.0716143	275.459
0.0720278	276.253
0.0724436	277.049
0.0728618	277.848
0.0732825	278.649
0.0737055	279.452
0.074131	280.257
0.074559	281.065
0.0749894	281.875
0.0754223	282.688
0.0758578	283.503
0.0762957	284.32
0.0767361	285.139
0.0771792	285.961
0.0776247	286.786
0.0780728	287.612
0.0785236	288.441
0.0789769	289.272
0.0794328	290.106
0.0798914	290.942
0.0803526	291.781
0.0808165	292.622
0.0812831	293.466
0.0817523	294.312
0.0822243	295.16
0.082699	296.01
0.0831764	296.864
0.0836566	297.719
0.0841395	298.577
0.0846253	299.438
0.0851138	300.301
0.0856052	301.167
0.0860994	302.035
0.0865964	302.906
0.0870964	303.778
0.0875992	304.654
0.0881049	305.532
0.0886135	306.413
0.0891251	307.296
0.0896396	308.182
0.0901571	309.07
0.0906776	309.961
0.0912011	310.854
0.0917276	311.75
0.0922571	312.649
0.0927897	313.55
0.0933254	314.454
0.0938642	315.36
0.0944061	316.269
0.0949511	317.181
0.0954993	318.095
0.0960506	319.012
0.0966051	319.932
0.0971628	320.854
0.0977237	321.779
0.0982879	322.706
0.0988553	323.636
0.099426	324.569
0.1	325.505
0.100577	326.443
0.101158	327.384
0.101742	328.327
0.102329	329.274
0.10292	330.223
0.103514	331.175
0.104112	332.129
0.104713	333.087
0.105317	334.047
0.105925	335.009
0.106537	335.975
0.107152	336.943
0.107771	337.914
0.108393	338.889
0.109018	339.866
0.109648	340.845
0.110281	341.828
0.110917	342.813
0.111558	343.801
0.112202	344.792
0.11285	345.786
0.113501	346.782
0.114156	347.782
0.114815	348.784
0.115478	349.79
0.116145	350.798
0.116815	351.809
0.11749	352.823
0.118168	353.84
0.11885	354.86
0.119536	355.883
0.120226	356.909
0.120921	357.937
0.121619	358.969
0.122321	360.004
0.123027	361.041
0.123737	362.082
0.124451	363.126
0.12517	364.172
0.125893	365.222
0.126619	366.275
0.12735	367.331
0.128086	368.39
0.128825	369.451
0.129569	370.516
0.130317	371.584
0.131069	372.655
0.131826	373.729
0.132587	374.806
0.133352	375.887
0.134122	376.97
0.134896	378.057
0.135675	379.146
0.136458	380.24
0.137246	381.335
0.138038	382.434
0.138835	383.537
0.139637	384.642
0.140443	385.751
0.141254	386.863
0.142069	387.978
0.142889	389.096
0.143714	390.218
0.144544	391.343
0.145378	392.471
0.146218	393.602
0.147062	394.736
0.147911	395.874
0.148765	397.015
0.149624	398.16
0.150487	399.307
0.151356	400.458
0.15223	401.612
0.153109	402.77
0.153993	403.931
0.154882	405.095
0.155776	406.263
0.156675	407.434
0.15758	408.608
0.158489	409.786
0.159404	410.967
0.160325	412.152
0.16125	413.34
0.162181	414.531
0.163117	415.726
0.164059	416.924
0.165006	418.126
0.165959	419.331
0.166917	420.54
0.16788	421.752
0.16885	422.968
0.169824	424.187
0.170805	425.409
0.171791	426.636
0.172783	427.865
0.17378	429.099
0.174783	430.335
0.175792	431.576
0.176807	432.82
0.177828	434.067
0.178855	435.318
0.179887	436.573
0.180926	437.832
0.18197	439.094
0.183021	440.359
0.184077	441.628
0.18514	442.901
0.186209	444.178
0.187284	445.458
0.188365	446.742
0.189452	448.03
0.190546	449.321
0.191646	450.617
0.192752	451.916
0.193865	453.218
0.194984	454.524
0.19611	455.834
0.197242	457.148
0.198381	458.466
0.199526	459.787
0.200678	461.113
0.201837	462.442
0.203002	463.775
0.204174	465.111
0.205353	466.452
0.206538	467.797
0.20773	469.145
0.20893	470.497
0.210136	471.853
0.211349	473.214
0.212569	474.577
0.213796	475.945
0.21503	477.317
0.216272	478.693
0.21752	480.073
0.218776	481.456
0.220039	482.844
0.221309	484.236
0.222587	485.632
0.223872	487.032
0.225165	488.435
0.226464	489.843
0.227772	491.255
0.229087	492.671
0.230409	494.091
0.231739	495.515
0.233077	496.944
0.234423	498.376
0.235776	499.813
0.237137	501.253
0.238506	502.698
0.239883	504.147
0.241268	505.6
0.242661	507.057
0.244062	508.519
0.245471	509.984
0.246888	511.455
0.248313	512.929
0.249747	514.407
0.251189	515.89
0.252639	517.377
0.254097	518.868
0.255564	520.364
0.25704	521.864
0.258523	523.368
0.260016	524.877
0.261517	526.389
0.263027	527.906
0.264545	529.428
0.266073	530.954
0.267609	532.485
0.269153	534.02
0.270707	535.559
0.27227	537.102
0.273842	538.65
0.275423	540.203
0.277013	541.76
0.278612	543.322
0.280221	544.888
0.281838	546.458
0.283465	548.034
0.285102	549.613
0.286748	551.197
0.288403	552.786
0.290068	554.379
0.291743	555.977
0.293427	557.58
0.295121	559.187
0.296825	560.799
0.298538	562.415
0.300262	564.05
0.301995	565.771
0.303739	567.498
0.305492	569.233
0.307256	570.975
0.30903	572.723
0.310814	574.479
0.312608	576.242
0.314413	578.012
0.316228	579.79
0.318053	581.574
0.31989	583.366
0.321736	585.165
0.323594	586.971
0.325462	588.784
0.327341	590.605
0.32923	592.433
0.331131	594.268
0.333043	596.11
0.334965	597.96
0.336899	599.816
0.338844	601.681
0.3408	603.552
0.342768	605.431
0.344747	607.316
0.346737	609.21
0.348739	611.11
0.350752	613.054
0.352777	615.068
0.354813	617.092
0.356862	619.126
0.358922	621.169
0.360994	623.204
0.363078	625.229
0.365174	627.263
0.367282	629.307
0.369403	631.36
0.371535	633.423
0.37368	635.495
0.375837	637.577
0.378007	639.668
0.380189	641.768
0.382384	643.878
0.384592	645.998
0.386812	648.127
0.389045	650.265
0.391291	652.412
0.39355	654.569
0.395822	656.735
0.398107	658.91
0.400405	661.111
0.402717	663.4
0.405042	665.7
0.40738	668.012
0.409732	670.336
0.412098	672.67
0.414477	675.016
0.416869	677.374
0.419276	679.743
0.421697	682.103
0.424131	684.465
0.42658	686.838
0.429042	689.222
0.431519	691.618
0.43401	694.023
0.436516	696.439
0.439036	698.866
0.44157	701.303
0.44412	703.751
0.446684	706.209
0.449262	708.676
0.451856	711.155
0.454465	713.643
0.457088	716.141
0.459727	718.648
0.462381	721.165
0.46505	723.692
0.467735	726.228
0.470435	728.773
0.473151	731.328
0.475883	733.891
0.47863	736.463
0.481393	739.027
0.484172	741.582
0.486968	744.145
0.489779	746.716
0.492606	749.295
0.49545	751.882
0.49831	754.478
0.501187	757.081
0.504081	759.692
0.506991	762.311
0.509918	764.937
0.512861	767.571
0.515822	770.212
0.5188	772.86
0.521795	775.516
0.524807	778.178
0.527837	780.848
0.530884	783.524
0.533949	786.208
0.537032	788.897
0.540132	791.593
0.54325	794.296
0.546387	797.005
0.549541	799.72
0.552713	802.44
0.555904	805.166
0.559114	807.899
0.562341	810.631
0.565588	813.366
0.568853	816.106
0.572137	818.851
0.57544	821.601
0.578762	824.357
0.582103	827.116
0.585464	829.881
0.588844	832.649
0.592243	835.423
0.595662	838.199
0.599101	840.98
0.60256	843.765
0.606038	846.553
0.609537	849.344
0.613056	852.139
0.616595	854.938
0.620155	857.739
0.623735	860.543
0.627336	863.351
0.630957	866.161
