E [MeV]	dEdx [keV/microm]
0.001	43.3896
0.00100577	43.5147
0.00101158	43.6401
0.00101742	43.7659
0.00102329	43.892
0.0010292	44.0186
0.00103514	44.1454
0.00104112	44.2727
0.00104713	44.4003
0.00105317	44.5283
0.00105925	44.6566
0.00106537	44.7853
0.00107152	44.9144
0.00107771	45.0439
0.00108393	45.1737
0.00109018	45.3039
0.00109648	45.4345
0.00110281	45.5655
0.00110917	45.6968
0.00111558	45.8285
0.00112202	45.9606
0.0011285	46.0931
0.00113501	46.226
0.00114156	46.3592
0.00114815	46.4928
0.00115478	46.6268
0.00116145	46.7612
0.00116815	46.896
0.0011749	47.0312
0.00118168	47.1668
0.0011885	47.3027
0.00119536	47.439
0.00120226	47.5758
0.00120921	47.7129
0.00121619	47.8504
0.00122321	47.9884
0.00123027	48.1267
0.00123737	48.2654
0.00124451	48.4045
0.0012517	48.544
0.00125893	48.6839
0.00126619	48.8243
0.0012735	48.965
0.00128086	49.1062
0.00128825	49.2477
0.00129569	49.3896
0.00130317	49.532
0.00131069	49.6748
0.00131826	49.818
0.00132587	49.9615
0.00133352	50.1056
0.00134122	50.25
0.00134896	50.3948
0.00135675	50.5401
0.00136458	50.6858
0.00137246	50.8319
0.00138038	50.9783
0.00138835	51.1253
0.00139637	51.2727
0.00140443	51.4205
0.00141254	51.5687
0.00142069	51.7173
0.00142889	51.8664
0.00143714	52.0159
0.00144544	52.1658
0.00145378	52.3162
0.00146218	52.4669
0.00147062	52.6182
0.00147911	52.7699
0.00148765	52.922
0.00149624	53.0745
0.00150487	53.2275
0.00151356	53.3809
0.0015223	53.5347
0.00153109	53.6891
0.00153993	53.8438
0.00154882	53.999
0.00155776	54.1547
0.00156675	54.3108
0.0015758	54.4673
0.00158489	54.6243
0.00159404	54.7817
0.00160325	54.9397
0.0016125	55.098
0.00162181	55.2568
0.00163117	55.4161
0.00164059	55.5758
0.00165006	55.736
0.00165959	55.8967
0.00166917	56.0578
0.0016788	56.2193
0.0016885	56.3814
0.00169824	56.5439
0.00170805	56.7069
0.00171791	56.8704
0.00172783	57.0343
0.0017378	57.1987
0.00174783	57.3635
0.00175792	57.5289
0.00176807	57.6947
0.00177828	57.861
0.00178855	58.0277
0.00179887	58.1951
0.00180926	58.3628
0.0018197	58.531
0.00183021	58.6997
0.00184077	58.8689
0.0018514	59.0386
0.00186209	59.2087
0.00187284	59.3794
0.00188365	59.5506
0.00189452	59.7222
0.00190546	59.8944
0.00191646	60.067
0.00192752	60.2401
0.00193865	60.4138
0.00194984	60.5879
0.0019611	60.7625
0.00197242	60.9377
0.00198381	61.1133
0.00199526	61.2895
0.00200678	61.4661
0.00201837	61.6433
0.00203002	61.821
0.00204174	61.9992
0.00205353	62.1779
0.00206538	62.3571
0.0020773	62.5368
0.0020893	62.7171
0.00210136	62.8979
0.00211349	63.0792
0.00212569	63.261
0.00213796	63.4433
0.0021503	63.6262
0.00216272	63.8096
0.0021752	63.9935
0.00218776	64.178
0.00220039	64.3629
0.00221309	64.5485
0.00222587	64.7345
0.00223872	64.9211
0.00225165	65.1082
0.00226464	65.2959
0.00227772	65.4841
0.00229087	65.6729
0.00230409	65.8621
0.00231739	66.052
0.00233077	66.2424
0.00234423	66.4333
0.00235776	66.6248
0.00237137	66.8168
0.00238506	67.0094
0.00239883	67.2026
0.00241268	67.3963
0.00242661	67.5905
0.00244062	67.7854
0.00245471	67.9807
0.00246888	68.1767
0.00248313	68.3732
0.00249747	68.5703
0.00251189	68.7679
0.00252639	68.9662
0.00254097	69.1649
0.00255564	69.3643
0.0025704	69.5642
0.00258523	69.7647
0.00260016	69.9658
0.00261517	70.1675
0.00263027	70.3697
0.00264545	70.5726
0.00266073	70.776
0.00267609	70.98
0.00269153	71.1846
0.00270707	71.3898
0.0027227	71.5955
0.00273842	71.8019
0.00275423	72.0089
0.00277013	72.2164
0.00278612	72.4246
0.00280221	72.6333
0.00281838	72.8427
0.00283465	73.0526
0.00285102	73.2632
0.00286748	73.4744
0.00288403	73.6862
0.00290068	73.8985
0.00291743	74.1115
0.00293427	74.3252
0.00295121	74.5394
0.00296825	74.7543
0.00298538	74.9697
0.00300262	75.1854
0.00301995	75.4005
0.00303739	75.6162
0.00305492	75.8325
0.00307256	76.0495
0.0030903	76.267
0.00310814	76.4852
0.00312608	76.7041
0.00314413	76.9235
0.00316228	77.1436
0.00318053	77.3644
0.0031989	77.5857
0.00321736	77.8077
0.00323594	78.0304
0.00325462	78.2537
0.00327341	78.4776
0.0032923	78.7022
0.00331131	78.9274
0.00333043	79.1533
0.00334965	79.3798
0.00336899	79.607
0.00338844	79.8348
0.003408	80.0633
0.00342768	80.2925
0.00344747	80.5223
0.00346737	80.7527
0.00348739	80.9839
0.00350752	81.2148
0.00352777	81.4454
0.00354813	81.6766
0.00356862	81.9085
0.00358922	82.1411
0.00360994	82.3743
0.00363078	82.6083
0.00365174	82.8428
0.00367282	83.0781
0.00369403	83.314
0.00371535	83.5507
0.0037368	83.788
0.00375837	84.026
0.00378007	84.2646
0.00380189	84.504
0.00382384	84.7441
0.00384592	84.9848
0.00386812	85.2262
0.00389045	85.4683
0.00391291	85.7112
0.0039355	85.9547
0.00395822	86.199
0.00398107	86.4439
0.00400405	86.6888
0.00402717	86.933
0.00405042	87.1779
0.0040738	87.4235
0.00409732	87.6698
0.00412098	87.9168
0.00414477	88.1646
0.00416869	88.413
0.00419276	88.6622
0.00421697	88.912
0.00424131	89.1627
0.0042658	89.414
0.00429042	89.666
0.00431519	89.9188
0.0043401	90.1723
0.00436516	90.4266
0.00439036	90.6815
0.0044157	90.9373
0.0044412	91.1937
0.00446684	91.4509
0.00449262	91.7088
0.00451856	91.9675
0.00454465	92.2269
0.00457088	92.4871
0.00459727	92.748
0.00462381	93.0097
0.0046505	93.2721
0.00467735	93.5352
0.00470435	93.7992
0.00473151	94.0639
0.00475883	94.3295
0.0047863	94.5956
0.00481393	94.8629
0.00484172	95.1306
0.00486968	95.3992
0.00489779	95.6683
0.00492606	95.9385
0.0049545	96.2093
0.0049831	96.4812
0.00501187	96.7536
0.00504081	97.0269
0.00506991	97.3007
0.00509918	97.5756
0.00512861	97.8511
0.00515822	98.1277
0.005188	98.4049
0.00521795	98.6829
0.00524807	98.9618
0.00527837	99.2415
0.00530884	99.5217
0.00533949	99.8031
0.00537032	100.085
0.00540132	100.368
0.0054325	100.652
0.00546387	100.936
0.00549541	101.222
0.00552713	101.508
0.00555904	101.794
0.00559114	102.083
0.00562341	102.371
0.00565588	102.661
0.00568853	102.951
0.00572137	103.242
0.0057544	103.534
0.00578762	103.827
0.00582103	104.121
0.00585464	104.415
0.00588844	104.711
0.00592243	105.007
0.00595662	105.304
0.00599101	105.602
0.0060256	105.901
0.00606038	106.201
0.00609537	106.501
0.00613056	106.803
0.00616595	107.105
0.00620155	107.408
0.00623735	107.712
0.00627336	108.017
0.00630957	108.323
0.006346	108.63
0.00638263	108.938
0.00641948	109.246
0.00645654	109.556
0.00649382	109.866
0.00653131	110.177
0.00656901	110.489
0.00660693	110.802
0.00664508	111.116
0.00668344	111.431
0.00672202	111.747
0.00676083	112.063
0.00679986	112.381
0.00683912	112.699
0.0068786	113.019
0.00691831	113.339
0.00695825	113.66
0.00699842	113.983
0.00703882	114.306
0.00707946	114.63
0.00712033	114.955
0.00716143	115.281
0.00720278	115.608
0.00724436	115.936
0.00728618	116.265
0.00732825	116.594
0.00737055	116.925
0.0074131	117.257
0.0074559	117.59
0.00749894	117.923
0.00754223	118.258
0.00758578	118.594
0.00762957	118.93
0.00767361	119.268
0.00771792	119.606
0.00776247	119.945
0.00780728	120.286
0.00785236	120.627
0.00789769	120.97
0.00794328	121.313
0.00798914	121.658
0.00803526	122.003
0.00808165	122.349
0.00812831	122.697
0.00817523	123.046
0.00822243	123.395
0.0082699	123.745
0.00831764	124.097
0.00836566	124.45
0.00841395	124.803
0.00846253	125.158
0.00851138	125.513
0.00856052	125.87
0.00860994	126.228
0.00865964	126.587
0.00870964	126.946
0.00875992	127.307
0.00881049	127.669
0.00886135	128.032
0.00891251	128.396
0.00896396	128.761
0.00901571	129.127
0.00906776	129.494
0.00912011	129.863
0.00917276	130.232
0.00922571	130.603
0.00927897	130.974
0.00933254	131.347
0.00938642	131.72
0.00944061	132.095
0.00949511	132.471
0.00954993	132.848
0.00960506	133.226
0.00966051	133.605
0.00971628	133.985
0.00977237	134.367
0.00982879	134.749
0.00988553	135.133
0.0099426	135.518
0.01	135.903
0.0100577	136.29
0.0101158	136.678
0.0101742	137.068
0.0102329	137.458
0.010292	137.849
0.0103514	138.242
0.0104112	138.636
0.0104713	139.031
0.0105317	139.427
0.0105925	139.824
0.0106537	140.222
0.0107152	140.622
0.0107771	141.022
0.0108393	141.424
0.0109018	141.827
0.0109648	142.232
0.0110281	142.637
0.0110917	143.044
0.0111558	143.452
0.0112202	143.86
0.011285	144.27
0.0113501	144.682
0.0114156	145.094
0.0114815	145.508
0.0115478	145.923
0.0116145	146.34
0.0116815	146.757
0.011749	147.176
0.0118168	147.595
0.011885	148.016
0.0119536	148.439
0.0120226	148.824
0.0120921	149.148
0.0121619	149.473
0.0122321	149.799
0.0123027	150.126
0.0123737	150.455
0.0124451	150.784
0.012517	151.115
0.0125893	151.447
0.0126619	151.78
0.012735	152.115
0.0128086	152.45
0.0128825	152.787
0.0129569	153.124
0.0130317	153.464
0.0131069	153.804
0.0131826	154.145
0.0132587	154.488
0.0133352	154.831
0.0134122	155.176
0.0134896	155.522
0.0135675	155.869
0.0136458	156.218
0.0137246	156.567
0.0138038	156.918
0.0138835	157.27
0.0139637	157.623
0.0140443	157.911
0.0141254	158.148
0.0142069	158.387
0.0142889	158.626
0.0143714	158.867
0.0144544	159.109
0.0145378	159.351
0.0146218	159.595
0.0147062	159.84
0.0147911	160.086
0.0148765	160.333
0.0149624	160.581
0.0150487	160.83
0.0151356	161.081
0.015223	161.332
0.0153109	161.584
0.0153993	161.837
0.0154882	162.091
0.0155776	162.347
0.0156675	162.603
0.015758	162.86
0.0158489	163.118
0.0159404	163.378
0.0160325	163.577
0.016125	163.704
0.0162181	163.831
0.0163117	163.96
0.0164059	164.09
0.0165006	164.22
0.0165959	164.352
0.0166917	164.484
0.016788	164.617
0.016885	164.751
0.0169824	164.886
0.0170805	165.021
0.0171791	165.157
0.0172783	165.295
0.017378	165.433
0.0174783	165.571
0.0175792	165.711
0.0176807	165.851
0.0177828	165.992
0.0178855	166.134
0.0179887	166.277
0.0180926	166.42
0.018197	166.564
0.0183021	166.709
0.0184077	166.854
0.018514	167.001
0.0186209	167.147
0.0187284	167.295
0.0188365	167.443
0.0189452	167.592
0.0190546	167.742
0.0191646	167.892
0.0192752	168.043
0.0193865	168.195
0.0194984	168.347
0.019611	168.5
0.0197242	168.654
0.0198381	168.808
0.0199526	168.963
0.0200678	169.119
0.0201837	169.275
0.0203002	169.432
0.0204174	169.589
0.0205353	169.747
0.0206538	169.906
0.020773	170.065
0.020893	170.225
0.0210136	170.385
0.0211349	170.546
0.0212569	170.708
0.0213796	170.871
0.021503	171.033
0.0216272	171.197
0.021752	171.361
0.0218776	171.525
0.0220039	171.69
0.0221309	171.856
0.0222587	172.023
0.0223872	172.19
0.0225165	172.358
0.0226464	172.526
0.0227772	172.694
0.0229087	172.864
0.0230409	173.034
0.0231739	173.204
0.0233077	173.375
0.0234423	173.547
0.0235776	173.719
0.0237137	173.892
0.0238506	174.065
0.0239883	174.239
0.0241268	174.413
0.0242661	174.588
0.0244062	174.763
0.0245471	174.94
0.0246888	175.116
0.0248313	175.293
0.0249747	175.471
0.0251189	175.65
0.0252639	175.828
0.0254097	176.008
0.0255564	176.188
0.025704	176.368
0.0258523	176.549
0.0260016	176.731
0.0261517	176.914
0.0263027	177.096
0.0264545	177.28
0.0266073	177.464
0.0267609	177.648
0.0269153	177.834
0.0270707	178.019
0.027227	178.206
0.0273842	178.392
0.0275423	178.58
0.0277013	178.768
0.0278612	178.956
0.0280221	179.145
0.0281838	179.335
0.0283465	179.525
0.0285102	179.717
0.0286748	179.908
0.0288403	180.1
0.0290068	180.292
0.0291743	180.486
0.0293427	180.68
0.0295121	180.874
0.0296825	181.069
0.0298538	181.265
0.0300262	181.461
0.0301995	181.658
0.0303739	181.855
0.0305492	182.053
0.0307256	182.252
0.030903	182.451
0.0310814	182.652
0.0312608	182.852
0.0314413	183.053
0.0316228	183.255
0.0318053	183.457
0.031989	183.66
0.0321736	183.864
0.0323594	184.068
0.0325462	184.273
0.0327341	184.479
0.032923	184.685
0.0331131	184.892
0.0333043	185.099
0.0334965	185.308
0.0336899	185.516
0.0338844	185.726
0.03408	185.936
0.0342768	186.147
0.0344747	186.359
0.0346737	186.571
0.0348739	186.784
0.0350752	186.997
0.0352777	187.212
0.0354813	187.427
0.0356862	187.642
0.0358922	187.858
0.0360994	188.076
0.0363078	188.293
0.0365174	188.512
0.0367282	188.731
0.0369403	188.951
0.0371535	189.171
0.037368	189.393
0.0375837	189.615
0.0378007	189.837
0.0380189	190.061
0.0382384	190.285
0.0384592	190.511
0.0386812	190.736
0.0389045	190.963
0.0391291	191.19
0.039355	191.418
0.0395822	191.647
0.0398107	191.876
0.0400405	192.107
0.0402717	192.338
0.0405042	192.57
0.040738	192.802
0.0409732	193.036
0.0412098	193.27
0.0414477	193.505
0.0416869	193.741
0.0419276	193.978
0.0421697	194.215
0.0424131	194.454
0.042658	194.693
0.0429042	194.933
0.0431519	195.174
0.043401	195.415
0.0436516	195.658
0.0439036	195.901
0.044157	196.145
0.044412	196.391
0.0446684	196.636
0.0449262	196.883
0.0451856	197.131
0.0454465	197.379
0.0457088	197.628
0.0459727	197.879
0.0462381	198.13
0.046505	198.382
0.0467735	198.635
0.0470435	198.889
0.0473151	199.144
0.0475883	199.399
0.047863	199.656
0.0481393	199.913
0.0484172	200.172
0.0486968	200.431
0.0489779	200.691
0.0492606	200.952
0.049545	201.215
0.049831	201.478
0.0501187	201.742
0.0504081	202.007
0.0506991	202.273
0.0509918	202.54
0.0512861	202.808
0.0515822	203.077
0.05188	203.347
0.0521795	203.617
0.0524807	203.889
0.0527837	204.162
0.0530884	204.436
0.0533949	204.711
0.0537032	204.987
0.0540132	205.264
0.054325	205.542
0.0546387	205.821
0.0549541	206.101
0.0552713	206.382
0.0555904	206.664
0.0559114	206.947
0.0562341	207.231
0.0565588	207.517
0.0568853	207.803
0.0572137	208.091
0.057544	208.379
0.0578762	208.668
0.0582103	208.959
0.0585464	209.251
0.0588844	209.544
0.0592243	209.837
0.0595662	210.132
0.0599101	210.429
0.060256	210.726
0.0606038	211.024
0.0609537	211.324
0.0613056	211.624
0.0616595	211.926
0.0620155	212.229
0.0623735	212.533
0.0627336	212.838
0.0630957	213.145
0.06346	213.452
0.0638263	213.761
0.0641948	214.07
0.0645654	214.382
0.0649382	214.694
0.0653131	215.007
0.0656901	215.322
0.0660693	215.638
0.0664508	215.955
0.0668344	216.273
0.0672202	216.592
0.0676083	216.913
0.0679986	217.234
0.0683912	217.558
0.068786	217.882
0.0691831	218.207
0.0695825	218.534
0.0699842	218.862
0.0703882	219.191
0.0707946	219.522
0.0712033	219.854
0.0716143	220.187
0.0720278	220.521
0.0724436	220.857
0.0728618	221.194
0.0732825	221.532
0.0737055	221.871
0.074131	222.212
0.074559	222.554
0.0749894	222.897
0.0754223	223.242
0.0758578	223.588
0.0762957	223.935
0.0767361	224.284
0.0771792	224.634
0.0776247	224.986
0.0780728	225.338
0.0785236	225.692
0.0789769	226.048
0.0794328	226.404
0.0798914	226.762
0.0803526	227.122
0.0808165	227.483
0.0812831	227.845
0.0817523	228.208
0.0822243	228.573
0.082699	228.94
0.0831764	229.308
0.0836566	229.677
0.0841395	230.047
0.0846253	230.419
0.0851138	230.792
0.0856052	231.167
0.0860994	231.543
0.0865964	231.921
0.0870964	232.3
0.0875992	232.681
0.0881049	233.063
0.0886135	233.446
0.0891251	233.831
0.0896396	234.217
0.0901571	234.605
0.0906776	234.994
0.0912011	235.385
0.0917276	235.777
0.0922571	236.171
0.0927897	236.566
0.0933254	236.963
0.0938642	237.361
0.0944061	237.761
0.0949511	238.162
0.0954993	238.565
0.0960506	238.969
0.0966051	239.374
0.0971628	239.782
0.0977237	240.19
0.0982879	240.601
0.0988553	241.013
0.099426	241.426
0.1	241.841
0.100577	242.257
0.101158	242.675
0.101742	243.095
0.102329	243.517
0.10292	243.939
0.103514	244.363
0.104112	244.789
0.104713	245.217
0.105317	245.646
0.105925	246.076
0.106537	246.509
0.107152	246.942
0.107771	247.378
0.108393	247.815
0.109018	248.254
0.109648	248.694
0.110281	249.136
0.110917	249.579
0.111558	250.025
0.112202	250.471
0.11285	250.92
0.113501	251.37
0.114156	251.822
0.114815	252.275
0.115478	252.73
0.116145	253.186
0.116815	253.645
0.11749	254.105
0.118168	254.567
0.11885	255.03
0.119536	255.495
0.120226	255.962
0.120921	256.43
0.121619	256.9
0.122321	257.372
0.123027	257.845
0.123737	258.321
0.124451	258.798
0.12517	259.276
0.125893	259.757
0.126619	260.238
0.12735	260.722
0.128086	261.208
0.128825	261.695
0.129569	262.184
0.130317	262.675
0.131069	263.167
0.131826	263.661
0.132587	264.157
0.133352	264.655
0.134122	265.154
0.134896	265.655
0.135675	266.158
0.136458	266.663
0.137246	267.169
0.138038	267.677
0.138835	268.187
0.139637	268.698
0.140443	269.212
0.141254	269.727
0.142069	270.244
0.142889	270.763
0.143714	271.284
0.144544	271.806
0.145378	272.33
0.146218	272.856
0.147062	273.384
0.147911	273.914
0.148765	274.445
0.149624	274.978
0.150487	275.513
0.151356	276.05
0.15223	276.589
0.153109	277.129
0.153993	277.671
0.154882	278.215
0.155776	278.761
0.156675	279.309
0.15758	279.858
0.158489	280.451
0.159404	281.095
0.160325	281.742
0.16125	282.393
0.162181	283.046
0.163117	283.701
0.164059	284.36
0.165006	285.022
0.165959	285.686
0.166917	286.354
0.16788	287.025
0.16885	287.698
0.169824	288.374
0.170805	289.054
0.171791	289.736
0.172783	290.421
0.17378	291.109
0.174783	291.801
0.175792	292.496
0.176807	293.193
0.177828	293.894
0.178855	294.597
0.179887	295.304
0.180926	296.014
0.18197	296.727
0.183021	297.443
0.184077	298.162
0.18514	298.885
0.186209	299.61
0.187284	300.339
0.188365	301.071
0.189452	301.807
0.190546	302.545
0.191646	303.287
0.192752	304.136
0.193865	305.004
0.194984	305.877
0.19611	306.754
0.197242	307.635
0.198381	308.522
0.199526	309.413
0.200678	310.309
0.201837	311.209
0.203002	312.115
0.204174	313.025
0.205353	313.941
0.206538	314.861
0.20773	315.786
0.20893	316.716
0.210136	317.651
0.211349	318.591
0.212569	319.537
0.213796	320.487
0.21503	321.442
0.216272	322.403
0.21752	323.369
0.218776	324.34
0.220039	325.316
0.221309	326.298
0.222587	327.285
0.223872	328.277
0.225165	329.275
0.226464	330.278
0.227772	331.286
0.229087	332.216
0.230409	333.235
0.231739	334.259
0.233077	335.442
0.234423	336.632
0.235776	337.829
0.237137	339.035
0.238506	340.247
0.239883	341.467
0.241268	342.695
0.242661	343.931
0.244062	345.174
0.245471	346.425
0.246888	347.684
0.248313	348.95
0.249747	350.225
0.251189	351.508
0.252639	352.799
0.254097	354.098
0.255564	355.404
0.25704	356.72
0.258523	358.044
0.260016	359.376
0.261517	360.716
0.263027	362.065
0.264545	363.423
0.266073	364.789
0.267609	366.164
0.269153	367.548
0.270707	368.94
0.27227	370.342
0.273842	371.752
0.275423	373.172
0.277013	374.601
0.278612	376.038
0.280221	377.485
0.281838	378.942
0.283465	380.408
0.285102	381.882
0.286748	383.367
0.288403	384.861
0.290068	386.365
0.291743	387.879
0.293427	389.403
0.295121	390.936
0.296825	392.479
0.298538	394.033
0.300262	395.596
0.301995	397.147
0.303739	398.658
0.305492	400.178
0.307256	401.708
0.30903	403.247
0.310814	404.794
0.312608	406.351
0.314413	407.917
0.316228	409.493
0.318053	411.078
0.31989	412.672
0.321736	414.276
0.323594	415.889
0.325462	417.512
0.327341	419.145
0.32923	420.787
0.331131	422.44
0.333043	424.102
0.334965	425.774
0.336899	427.456
0.338844	429.148
0.3408	430.851
0.342768	432.45
0.344747	434.171
0.346737	435.903
0.348739	437.645
0.350752	439.397
0.352777	441.115
0.354813	442.799
0.356862	444.493
0.358922	446.195
0.360994	447.906
0.363078	449.626
0.365174	451.355
0.367282	453.094
0.369403	454.841
0.371535	456.599
0.37368	458.365
0.375837	460.14
0.378007	461.925
0.380189	463.719
0.382384	465.523
0.384592	467.336
0.386812	469.159
0.389045	470.992
0.391291	472.834
0.39355	474.686
0.395822	476.547
0.398107	478.418
0.400405	480.299
0.402717	482.147
0.405042	483.942
0.40738	485.745
0.409732	487.555
0.412098	489.373
0.414477	491.199
0.416869	493.033
0.419276	494.876
0.421697	496.725
0.424131	498.583
0.42658	500.449
0.429042	502.323
0.431519	504.206
0.43401	506.095
0.436516	507.994
0.439036	509.899
0.44157	511.814
0.44412	513.735
0.446684	515.666
0.449262	517.604
0.451856	519.55
0.454465	521.504
0.457088	523.466
0.459727	525.437
0.462381	527.415
0.46505	529.401
0.467735	531.395
0.470435	533.398
0.473151	535.409
0.475883	537.427
0.47863	539.454
0.481393	541.489
0.484172	543.531
0.486968	545.582
0.489779	547.641
0.492606	549.707
0.49545	551.782
0.49831	553.864
0.501187	555.808
0.504081	557.905
0.506991	560.01
0.509918	562.123
0.512861	564.244
0.515822	566.373
0.5188	568.51
0.521795	570.655
0.524807	572.807
0.527837	574.968
0.530884	577.136
0.533949	579.312
0.537032	581.496
0.540132	583.689
0.54325	585.888
0.546387	588.096
0.549541	590.311
0.552713	592.534
0.555904	594.765
0.559114	597.004
0.562341	599.251
0.565588	601.504
0.568853	603.766
0.572137	606.035
0.57544	608.312
0.578762	610.597
0.582103	612.889
0.585464	615.188
0.588844	617.496
0.592243	619.81
0.595662	622.132
0.599101	624.462
0.60256	626.799
0.606038	629.143
0.609537	631.495
0.613056	633.853
0.616595	636.219
0.620155	638.593
0.623735	640.973
