Stopping power dEdx from Ionisation for deuteron Z = 1 in Water, process name: hIoni
E [MeV]	dEdx [MeV/mm]
0.001	12.1542
0.00100577	12.1892
0.00101158	12.2244
0.00101742	12.2596
0.00102329	12.295
0.0010292	12.3304
0.00103514	12.3659
0.00104112	12.4016
0.00104713	12.4373
0.00105317	12.4732
0.00105925	12.5091
0.00106537	12.5452
0.00107152	12.5813
0.00107771	12.6176
0.00108393	12.654
0.00109018	12.6904
0.00109648	12.727
0.00110281	12.7637
0.00110917	12.8005
0.00111558	12.8374
0.00112202	12.8744
0.0011285	12.9115
0.00113501	12.9487
0.00114156	12.986
0.00114815	13.0235
0.00115478	13.061
0.00116145	13.0987
0.00116815	13.1364
0.0011749	13.1743
0.00118168	13.2123
0.0011885	13.2503
0.00119536	13.2885
0.00120226	13.3268
0.00120921	13.3652
0.00121619	13.4038
0.00122321	13.4424
0.00123027	13.4811
0.00123737	13.52
0.00124451	13.559
0.0012517	13.5981
0.00125893	13.6373
0.00126619	13.6766
0.0012735	13.716
0.00128086	13.7555
0.00128825	13.7952
0.00129569	13.8349
0.00130317	13.8748
0.00131069	13.9148
0.00131826	13.9549
0.00132587	13.9951
0.00133352	14.0355
0.00134122	14.0759
0.00134896	14.1165
0.00135675	14.1572
0.00136458	14.198
0.00137246	14.2389
0.00138038	14.28
0.00138835	14.3211
0.00139637	14.3624
0.00140443	14.4038
0.00141254	14.4453
0.00142069	14.4869
0.00142889	14.5287
0.00143714	14.5706
0.00144544	14.6126
0.00145378	14.6547
0.00146218	14.6969
0.00147062	14.7393
0.00147911	14.7818
0.00148765	14.8244
0.00149624	14.8671
0.00150487	14.91
0.00151356	14.9529
0.0015223	14.996
0.00153109	15.0393
0.00153993	15.0826
0.00154882	15.1261
0.00155776	15.1697
0.00156675	15.2134
0.0015758	15.2573
0.00158489	15.3012
0.00159404	15.3454
0.00160325	15.3896
0.0016125	15.4339
0.00162181	15.4784
0.00163117	15.523
0.00164059	15.5678
0.00165006	15.6127
0.00165959	15.6577
0.00166917	15.7028
0.0016788	15.7481
0.0016885	15.7934
0.00169824	15.839
0.00170805	15.8846
0.00171791	15.9304
0.00172783	15.9763
0.0017378	16.0224
0.00174783	16.0686
0.00175792	16.1149
0.00176807	16.1613
0.00177828	16.2079
0.00178855	16.2546
0.00179887	16.3015
0.00180926	16.3485
0.0018197	16.3956
0.00183021	16.4428
0.00184077	16.4902
0.0018514	16.5378
0.00186209	16.5854
0.00187284	16.6332
0.00188365	16.6812
0.00189452	16.7293
0.00190546	16.7775
0.00191646	16.8258
0.00192752	16.8743
0.00193865	16.923
0.00194984	16.9718
0.0019611	17.0207
0.00197242	17.0697
0.00198381	17.1189
0.00199526	17.1683
0.00200678	17.2178
0.00201837	17.2674
0.00203002	17.3172
0.00204174	17.3671
0.00205353	17.4171
0.00206538	17.4673
0.0020773	17.5177
0.0020893	17.5682
0.00210136	17.6188
0.00211349	17.6696
0.00212569	17.7205
0.00213796	17.7716
0.0021503	17.8228
0.00216272	17.8742
0.0021752	17.9257
0.00218776	17.9774
0.00220039	18.0292
0.00221309	18.0812
0.00222587	18.1333
0.00223872	18.1856
0.00225165	18.238
0.00226464	18.2906
0.00227772	18.3433
0.00229087	18.3961
0.00230409	18.4492
0.00231739	18.5023
0.00233077	18.5557
0.00234423	18.6092
0.00235776	18.6628
0.00237137	18.7166
0.00238506	18.7705
0.00239883	18.8246
0.00241268	18.8789
0.00242661	18.9333
0.00244062	18.9879
0.00245471	19.0426
0.00246888	19.0975
0.00248313	19.1526
0.00249747	19.2078
0.00251189	19.2631
0.00252639	19.3187
0.00254097	19.3743
0.00255564	19.4302
0.0025704	19.4862
0.00258523	19.5424
0.00260016	19.5987
0.00261517	19.6552
0.00263027	19.7118
0.00264545	19.7686
0.00266073	19.8256
0.00267609	19.8828
0.00269153	19.9401
0.00270707	19.9976
0.0027227	20.0552
0.00273842	20.113
0.00275423	20.171
0.00277013	20.2291
0.00278612	20.2874
0.00280221	20.3459
0.00281838	20.4045
0.00283465	20.4634
0.00285102	20.5223
0.00286748	20.5815
0.00288403	20.6408
0.00290068	20.7003
0.00291743	20.76
0.00293427	20.8198
0.00295121	20.8798
0.00296825	20.94
0.00298538	21.0004
0.00300262	21.0609
0.00301995	21.1216
0.00303739	21.1825
0.00305492	21.2435
0.00307256	21.3048
0.0030903	21.3662
0.00310814	21.4278
0.00312608	21.4895
0.00314413	21.5515
0.00316228	21.6136
0.00318053	21.6759
0.0031989	21.7384
0.00321736	21.801
0.00323594	21.8639
0.00325462	21.9269
0.00327341	21.9901
0.0032923	22.0535
0.00331131	22.117
0.00333043	22.1808
0.00334965	22.2447
0.00336899	22.3088
0.00338844	22.3731
0.003408	22.4376
0.00342768	22.5023
0.00344747	22.5672
0.00346737	22.6322
0.00348739	22.6974
0.00350752	22.7629
0.00352777	22.8285
0.00354813	22.8943
0.00356862	22.9603
0.00358922	23.0264
0.00360994	23.0928
0.00363078	23.1594
0.00365174	23.2261
0.00367282	23.2931
0.00369403	23.3602
0.00371535	23.4275
0.0037368	23.4951
0.00375837	23.5628
0.00378007	23.6307
0.00380189	23.6988
0.00382384	23.7671
0.00384592	23.8356
0.00386812	23.9043
0.00389045	23.9732
0.00391291	24.0423
0.0039355	24.1116
0.00395822	24.1811
0.00398107	24.2508
0.00400405	24.3207
0.00402717	24.3908
0.00405042	24.4611
0.0040738	24.5317
0.00409732	24.6024
0.00412098	24.6733
0.00414477	24.7444
0.00416869	24.8157
0.00419276	24.8872
0.00421697	24.959
0.00424131	25.0309
0.0042658	25.1031
0.00429042	25.1754
0.00431519	25.248
0.0043401	25.3208
0.00436516	25.3937
0.00439036	25.4669
0.0044157	25.5403
0.0044412	25.614
0.00446684	25.6878
0.00449262	25.7618
0.00451856	25.8361
0.00454465	25.9106
0.00457088	25.9852
0.00459727	26.0601
0.00462381	26.1353
0.0046505	26.2106
0.00467735	26.2861
0.00470435	26.3619
0.00473151	26.4379
0.00475883	26.5141
0.0047863	26.5905
0.00481393	26.6672
0.00484172	26.744
0.00486968	26.8211
0.00489779	26.8984
0.00492606	26.976
0.0049545	27.0537
0.0049831	27.1317
0.00501187	27.2099
0.00504081	27.2883
0.00506991	27.367
0.00509918	27.4459
0.00512861	27.525
0.00515822	27.6043
0.005188	27.6839
0.00521795	27.7637
0.00524807	27.8437
0.00527837	27.9239
0.00530884	28.0044
0.00533949	28.0852
0.00537032	28.1661
0.00540132	28.2473
0.0054325	28.3287
0.00546387	28.4104
0.00549541	28.4923
0.00552713	28.5744
0.00555904	28.6567
0.00559114	28.7393
0.00562341	28.8222
0.00565588	28.9053
0.00568853	28.9886
0.00572137	29.0721
0.0057544	29.1559
0.00578762	29.24
0.00582103	29.3242
0.00585464	29.4088
0.00588844	29.4935
0.00592243	29.5785
0.00595662	29.6638
0.00599101	29.7493
0.0060256	29.8351
0.00606038	29.9211
0.00609537	30.0073
0.00613056	30.0938
0.00616595	30.1805
0.00620155	30.2675
0.00623735	30.3548
0.00627336	30.4423
0.00630957	30.53
0.006346	30.618
0.00638263	30.7063
0.00641948	30.7948
0.00645654	30.8835
0.00649382	30.9725
0.00653131	31.0618
0.00656901	31.1513
0.00660693	31.2411
0.00664508	31.3312
0.00668344	31.4215
0.00672202	31.5121
0.00676083	31.6029
0.00679986	31.694
0.00683912	31.7853
0.0068786	31.877
0.00691831	31.9688
0.00695825	32.061
0.00699842	32.1534
0.00703882	32.2461
0.00707946	32.339
0.00712033	32.4322
0.00716143	32.5257
0.00720278	32.6195
0.00724436	32.7135
0.00728618	32.8078
0.00732825	32.9023
0.00737055	32.9972
0.0074131	33.0923
0.0074559	33.1877
0.00749894	33.2833
0.00754223	33.3793
0.00758578	33.4755
0.00762957	33.572
0.00767361	33.6687
0.00771792	33.7658
0.00776247	33.8631
0.00780728	33.9607
0.00785236	34.0586
0.00789769	34.1568
0.00794328	34.2552
0.00798914	34.354
0.00803526	34.453
0.00808165	34.5523
0.00812831	34.6519
0.00817523	34.7518
0.00822243	34.8519
0.0082699	34.9524
0.00831764	35.0531
0.00836566	35.1542
0.00841395	35.2555
0.00846253	35.3571
0.00851138	35.459
0.00856052	35.5612
0.00860994	35.6637
0.00865964	35.7665
0.00870964	35.8696
0.00875992	35.973
0.00881049	36.0767
0.00886135	36.1807
0.00891251	36.285
0.00896396	36.3896
0.00901571	36.4945
0.00906776	36.5996
0.00912011	36.7051
0.00917276	36.8109
0.00922571	36.917
0.00927897	37.0234
0.00933254	37.1302
0.00938642	37.2372
0.00944061	37.3445
0.00949511	37.4522
0.00954993	37.5601
0.00960506	37.6684
0.00966051	37.7769
0.00971628	37.8858
0.00977237	37.995
0.00982879	38.1046
0.00988553	38.2144
0.0099426	38.3245
0.01	38.435
0.0100577	38.5458
0.0101158	38.6569
0.0101742	38.7683
0.0102329	38.8801
0.010292	38.9921
0.0103514	39.1045
0.0104112	39.2172
0.0104713	39.3303
0.0105317	39.4436
0.0105925	39.5573
0.0106537	39.6713
0.0107152	39.7857
0.0107771	39.9004
0.0108393	40.0154
0.0109018	40.1307
0.0109648	40.2464
0.0110281	40.3624
0.0110917	40.4787
0.0111558	40.5954
0.0112202	40.7124
0.011285	40.8298
0.0113501	40.9474
0.0114156	41.0655
0.0114815	41.1838
0.0115478	41.3025
0.0116145	41.4216
0.0116815	41.541
0.011749	41.6607
0.0118168	41.7808
0.011885	41.9012
0.0119536	42.022
0.0120226	42.1431
0.0120921	42.2646
0.0121619	42.3864
0.0122321	42.5086
0.0123027	42.6311
0.0123737	42.754
0.0124451	42.8772
0.012517	43.0008
0.0125893	43.1248
0.0126619	43.2491
0.012735	43.3737
0.0128086	43.4988
0.0128825	43.6241
0.0129569	43.7499
0.0130317	43.876
0.0131069	44.0024
0.0131826	44.1293
0.0132587	44.2565
0.0133352	44.384
0.0134122	44.512
0.0134896	44.6403
0.0135675	44.7689
0.0136458	44.898
0.0137246	45.0274
0.0138038	45.1572
0.0138835	45.2873
0.0139637	45.4179
0.0140443	45.5488
0.0141254	45.6801
0.0142069	45.8117
0.0142889	45.9438
0.0143714	46.0762
0.0144544	46.209
0.0145378	46.3422
0.0146218	46.4758
0.0147062	46.6098
0.0147911	46.7441
0.0148765	46.8788
0.0149624	47.014
0.0150487	47.1495
0.0151356	47.2854
0.015223	47.4217
0.0153109	47.5584
0.0153993	47.6954
0.0154882	47.8329
0.0155776	47.9708
0.0156675	48.1091
0.015758	48.2477
0.0158489	48.3868
0.0159404	48.5263
0.0160325	48.6661
0.016125	48.8064
0.0162181	48.9471
0.0163117	49.0882
0.0164059	49.2297
0.0165006	49.3716
0.0165959	49.5139
0.0166917	49.6566
0.016788	49.7997
0.016885	49.9433
0.0169824	50.0872
0.0170805	50.2316
0.0171791	50.3764
0.0172783	50.5216
0.017378	50.6672
0.0174783	50.8132
0.0175792	50.9597
0.0176807	51.1066
0.0177828	51.2539
0.0178855	51.4016
0.0179887	51.5498
0.0180926	51.6984
0.018197	51.8474
0.0183021	51.9968
0.0184077	52.1467
0.018514	52.297
0.0186209	52.4477
0.0187284	52.5989
0.0188365	52.7505
0.0189452	52.9026
0.0190546	53.0551
0.0191646	53.208
0.0192752	53.3614
0.0193865	53.5152
0.0194984	53.6694
0.019611	53.8241
0.0197242	53.9792
0.0198381	54.1348
0.0199526	54.2909
0.0200678	54.4474
0.0201837	54.5945
0.0203002	54.7283
0.0204174	54.8623
0.0205353	54.9965
0.0206538	55.1311
0.020773	55.2658
0.020893	55.4008
0.0210136	55.5361
0.0211349	55.6716
0.0212569	55.8074
0.0213796	55.9434
0.021503	56.0797
0.0216272	56.2163
0.021752	56.353
0.0218776	56.4901
0.0220039	56.6274
0.0221309	56.7649
0.0222587	56.9027
0.0223872	57.0407
0.0225165	57.179
0.0226464	57.3175
0.0227772	57.4563
0.0229087	57.5953
0.0230409	57.7345
0.0231739	57.874
0.0233077	58.0138
0.0234423	58.1538
0.0235776	58.294
0.0237137	58.4345
0.0238506	58.5752
0.0239883	58.7161
0.0241268	58.8573
0.0242661	58.9987
0.0244062	59.1404
0.0245471	59.2823
0.0246888	59.4244
0.0248313	59.5668
0.0249747	59.7094
0.0251189	59.8523
0.0252639	59.9953
0.0254097	60.1386
0.0255564	60.2822
0.025704	60.4259
0.0258523	60.5699
0.0260016	60.7141
0.0261517	60.8586
0.0263027	61.0032
0.0264545	61.1481
0.0266073	61.2932
0.0267609	61.4386
0.0269153	61.5841
0.0270707	61.7299
0.027227	61.8759
0.0273842	62.0221
0.0275423	62.1685
0.0277013	62.3152
0.0278612	62.462
0.0280221	62.6091
0.0281838	62.7563
0.0283465	62.9038
0.0285102	63.0515
0.0286748	63.1994
0.0288403	63.3475
0.0290068	63.4958
0.0291743	63.6443
0.0293427	63.793
0.0295121	63.9419
0.0296825	64.091
0.0298538	64.2403
0.0300262	64.3898
0.0301995	64.5395
0.0303739	64.6894
0.0305492	64.8395
0.0307256	64.9897
0.030903	65.1402
0.0310814	65.2908
0.0312608	65.4416
0.0314413	65.5926
0.0316228	65.7437
0.0318053	65.8951
0.031989	66.0466
0.0321736	66.1983
0.0323594	66.3501
0.0325462	66.5022
0.0327341	66.6544
0.032923	66.8067
0.0331131	66.9593
0.0333043	67.112
0.0334965	67.2648
0.0336899	67.4178
0.0338844	67.571
0.03408	67.7243
0.0342768	67.8777
0.0344747	68.0313
0.0346737	68.1851
0.0348739	68.339
0.0350752	68.493
0.0352777	68.6472
0.0354813	68.8015
0.0356862	68.956
0.0358922	69.1105
0.0360994	69.2652
0.0363078	69.4201
0.0365174	69.575
0.0367282	69.7301
0.0369403	69.8853
0.0371535	70.0406
0.037368	70.196
0.0375837	70.3516
0.0378007	70.5072
0.0380189	70.663
0.0382384	70.8188
0.0384592	70.9747
0.0386812	71.1308
0.0389045	71.2869
0.0391291	71.4431
0.039355	71.5994
0.0395822	71.7558
0.0398107	71.9123
0.0400405	72.0689
0.0402717	72.2255
0.0405042	72.3822
0.040738	72.5389
0.0409732	72.6958
0.0412098	72.8526
0.0414477	73.0096
0.0416869	73.1666
0.0419276	73.3236
0.0421697	73.4807
0.0424131	73.6378
0.042658	73.795
0.0429042	73.9522
0.0431519	74.1095
0.043401	74.2667
0.0436516	74.424
0.0439036	74.5814
0.044157	74.7387
0.044412	74.896
0.0446684	75.0534
0.0449262	75.2108
0.0451856	75.3681
0.0454465	75.5255
0.0457088	75.6828
0.0459727	75.8402
0.0462381	75.9975
0.046505	76.1548
0.0467735	76.3121
0.0470435	76.4693
0.0473151	76.6265
0.0475883	76.7837
0.047863	76.9409
0.0481393	77.0979
0.0484172	77.255
0.0486968	77.412
0.0489779	77.5689
0.0492606	77.7257
0.049545	77.8825
0.049831	78.0392
0.0501187	78.1959
0.0504081	78.3524
0.0506991	78.5089
0.0509918	78.6652
0.0512861	78.8215
0.0515822	78.9777
0.05188	79.1337
0.0521795	79.2897
0.0524807	79.4455
0.0527837	79.6012
0.0530884	79.7567
0.0533949	79.9121
0.0537032	80.0674
0.0540132	80.2225
0.054325	80.3775
0.0546387	80.5323
0.0549541	80.687
0.0552713	80.8415
0.0555904	80.9958
0.0559114	81.1499
0.0562341	81.3038
0.0565588	81.4576
0.0568853	81.6111
0.0572137	81.7644
0.057544	81.9176
0.0578762	82.0705
0.0582103	82.2231
0.0585464	82.3756
0.0588844	82.5278
0.0592243	82.6798
0.0595662	82.8315
0.0599101	82.983
0.060256	83.1342
0.0606038	83.2851
0.0609537	83.4357
0.0613056	83.5861
0.0616595	83.7362
0.0620155	83.886
0.0623735	84.0355
0.0627336	84.1846
0.0630957	84.3335
0.06346	84.482
0.0638263	84.6302
0.0641948	84.7781
0.0645654	84.9256
0.0649382	85.0728
0.0653131	85.2196
0.0656901	85.366
0.0660693	85.5121
0.0664508	85.6578
0.0668344	85.8031
0.0672202	85.948
0.0676083	86.0925
0.0679986	86.2366
0.0683912	86.3802
0.068786	86.5235
0.0691831	86.6663
0.0695825	86.8087
0.0699842	86.9506
0.0703882	87.092
0.0707946	87.233
0.0712033	87.3735
0.0716143	87.5136
0.0720278	87.6531
0.0724436	87.7921
0.0728618	87.9307
0.0732825	88.0687
0.0737055	88.2062
0.074131	88.3432
0.074559	88.4796
0.0749894	88.6155
0.0754223	88.7508
0.0758578	88.8855
0.0762957	89.0197
0.0767361	89.1533
0.0771792	89.2863
0.0776247	89.4187
0.0780728	89.5505
0.0785236	89.6817
0.0789769	89.8123
0.0794328	89.9422
0.0798914	90.0715
0.0803526	90.2001
0.0808165	90.3281
0.0812831	90.4553
0.0817523	90.582
0.0822243	90.7079
0.082699	90.8331
0.0831764	90.9576
0.0836566	91.0814
0.0841395	91.2045
0.0846253	91.3268
0.0851138	91.4484
0.0856052	91.5693
0.0860994	91.6893
0.0865964	91.8086
0.0870964	91.9272
0.0875992	92.0449
0.0881049	92.1618
0.0886135	92.278
0.0891251	92.3933
0.0896396	92.5077
0.0901571	92.6214
0.0906776	92.7341
0.0912011	92.8461
0.0917276	92.9571
0.0922571	93.0673
0.0927897	93.1766
0.0933254	93.285
0.0938642	93.3925
0.0944061	93.4991
0.0949511	93.6047
0.0954993	93.7094
0.0960506	93.8132
0.0966051	93.916
0.0971628	94.0178
0.0977237	94.1187
0.0982879	94.2186
0.0988553	94.3175
0.099426	94.4154
0.1	94.5122
0.100577	94.6081
0.101158	94.7029
0.101742	94.7966
0.102329	94.8894
0.10292	94.981
0.103514	95.0716
0.104112	95.1611
0.104713	95.2495
0.105317	95.3368
0.105925	95.4229
0.106537	95.508
0.107152	95.5919
0.107771	95.6747
0.108393	95.7563
0.109018	95.8368
0.109648	95.9161
0.110281	95.9942
0.110917	96.0712
0.111558	96.1469
0.112202	96.2214
0.11285	96.2947
0.113501	96.3668
0.114156	96.4376
0.114815	96.5072
0.115478	96.5755
0.116145	96.6425
0.116815	96.7083
0.11749	96.7728
0.118168	96.836
0.11885	96.8979
0.119536	96.9584
0.120226	97.0177
0.120921	97.0756
0.121619	97.1322
0.122321	97.1874
0.123027	97.2413
0.123737	97.2938
0.124451	97.3449
0.12517	97.3946
0.125893	97.443
0.126619	97.4899
0.12735	97.5354
0.128086	97.5795
0.128825	97.6222
0.129569	97.6634
0.130317	97.7032
0.131069	97.7415
0.131826	97.7784
0.132587	97.8138
0.133352	97.8477
0.134122	97.8801
0.134896	97.911
0.135675	97.9404
0.136458	97.9684
0.137246	97.9947
0.138038	98.0196
0.138835	98.0429
0.139637	98.0647
0.140443	98.085
0.141254	98.1037
0.142069	98.1208
0.142889	98.1363
0.143714	98.1503
0.144544	98.1627
0.145378	98.1735
0.146218	98.1827
0.147062	98.1903
0.147911	98.1963
0.148765	98.2007
0.149624	98.2034
0.150487	98.2046
0.151356	98.204
0.15223	98.2019
0.153109	98.1981
0.153993	98.1926
0.154882	98.1855
0.155776	98.1768
0.156675	98.1663
0.15758	98.1542
0.158489	98.1405
0.159404	98.125
0.160325	98.1078
0.16125	98.089
0.162181	98.0685
0.163117	98.0462
0.164059	98.0223
0.165006	97.9967
0.165959	97.9693
0.166917	97.9402
0.16788	97.9095
0.16885	97.877
0.169824	97.8427
0.170805	97.8068
0.171791	97.7691
0.172783	97.7297
0.17378	97.6885
0.174783	97.6457
0.175792	97.601
0.176807	97.5547
0.177828	97.5066
0.178855	97.4567
0.179887	97.4051
0.180926	97.3518
0.18197	97.2967
0.183021	97.2399
0.184077	97.1813
0.18514	97.1209
0.186209	97.0588
0.187284	96.995
0.188365	96.9294
0.189452	96.8621
0.190546	96.793
0.191646	96.7222
0.192752	96.6496
0.193865	96.5753
0.194984	96.4992
0.19611	96.4214
0.197242	96.3418
0.198381	96.2605
0.199526	96.1775
0.200678	96.0927
0.201837	96.0062
0.203002	95.9179
0.204174	95.8279
0.205353	95.7362
0.206538	95.6428
0.20773	95.5476
0.20893	95.4508
0.210136	95.3522
0.211349	95.2519
0.212569	95.1499
0.213796	95.0462
0.21503	94.9408
0.216272	94.8337
0.21752	94.7249
0.218776	94.6145
0.220039	94.5023
0.221309	94.3885
0.222587	94.273
0.223872	94.1559
0.225165	94.0371
0.226464	93.9167
0.227772	93.7946
0.229087	93.6709
0.230409	93.5455
0.231739	93.4186
0.233077	93.29
0.234423	93.1598
0.235776	93.028
0.237137	92.8946
0.238506	92.7596
0.239883	92.6231
0.241268	92.485
0.242661	92.3453
0.244062	92.2041
0.245471	92.0613
0.246888	91.917
0.248313	91.7712
0.249747	91.6239
0.251189	91.475
0.252639	91.3247
0.254097	91.1729
0.255564	91.0196
0.25704	90.8649
0.258523	90.7087
0.260016	90.551
0.261517	90.3919
0.263027	90.2314
0.264545	90.0695
0.266073	89.9062
0.267609	89.7415
0.269153	89.5754
0.270707	89.408
0.27227	89.2392
0.273842	89.0691
0.275423	88.8976
0.277013	88.7249
0.278612	88.5508
0.280221	88.3754
0.281838	88.1988
0.283465	88.0209
0.285102	87.8418
0.286748	87.6614
0.288403	87.4798
0.290068	87.2969
0.291743	87.1129
0.293427	86.9277
0.295121	86.7413
0.296825	86.5538
0.298538	86.3652
0.300262	86.1754
0.301995	85.9845
0.303739	85.7925
0.305492	85.5994
0.307256	85.4052
0.30903	85.21
0.310814	85.0138
0.312608	84.8165
0.314413	84.6182
0.316228	84.4189
0.318053	84.2187
0.31989	84.0175
0.321736	83.8153
0.323594	83.6122
0.325462	83.4082
0.327341	83.2033
0.32923	82.9975
0.331131	82.7908
0.333043	82.5833
0.334965	82.3749
0.336899	82.1657
0.338844	81.9557
0.3408	81.7449
0.342768	81.5333
0.344747	81.321
0.346737	81.1079
0.348739	80.8941
0.350752	80.6796
0.352777	80.4644
0.354813	80.2486
0.356862	80.032
0.358922	79.8148
0.360994	79.597
0.363078	79.3786
0.365174	79.1595
0.367282	78.9399
0.369403	78.7197
0.371535	78.499
0.37368	78.2777
0.375837	78.0559
0.378007	77.8336
0.380189	77.6108
0.382384	77.3876
0.384592	77.1639
0.386812	76.9397
0.389045	76.7152
0.391291	76.4902
0.39355	76.2648
0.395822	76.0391
0.398107	75.813
0.400405	75.5866
0.402717	75.3598
0.405042	75.1327
0.40738	74.9053
0.409732	74.6777
0.412098	74.4497
0.414477	74.2215
0.416869	73.9931
0.419276	73.7645
0.421697	73.5356
0.424131	73.3066
0.42658	73.0774
0.429042	72.848
0.431519	72.6185
0.43401	72.3888
0.436516	72.159
0.439036	71.9292
0.44157	71.6992
0.44412	71.4691
0.446684	71.239
0.449262	71.0089
0.451856	70.7787
0.454465	70.5485
0.457088	70.3182
0.459727	70.088
0.462381	69.8578
0.46505	69.6277
0.467735	69.3976
0.470435	69.1675
0.473151	68.9375
0.475883	68.7076
0.47863	68.4778
0.481393	68.2481
0.484172	68.0186
0.486968	67.7891
0.489779	67.5598
0.492606	67.3307
0.49545	67.1017
0.49831	66.873
0.501187	66.6444
0.504081	66.416
0.506991	66.1878
0.509918	65.9599
0.512861	65.7322
0.515822	65.5047
0.5188	65.2775
0.521795	65.0506
0.524807	64.8239
0.527837	64.5975
0.530884	64.3715
0.533949	64.1457
0.537032	63.9203
0.540132	63.6952
0.54325	63.4704
0.546387	63.246
0.549541	63.0219
0.552713	62.7982
0.555904	62.5748
0.559114	62.3519
0.562341	62.1293
0.565588	61.9071
0.568853	61.6854
0.572137	61.464
0.57544	61.2431
0.578762	61.0226
0.582103	60.8026
0.585464	60.5829
0.588844	60.3638
0.592243	60.1451
0.595662	59.9268
0.599101	59.7091
0.60256	59.4918
0.606038	59.275
0.609537	59.0587
0.613056	58.8429
