Stopping power dEdx from Ionisation for F19[0.0] Z = 9 in G4_TISSUE_SOFT_ICRP, process name: ionIoni
E [MeV]	dEdx [MeV/mm]
0.001	47.5836
0.00100577	47.7207
0.00101158	47.8583
0.00101742	47.9962
0.00102329	48.1345
0.0010292	48.2733
0.00103514	48.4124
0.00104112	48.552
0.00104713	48.6919
0.00105317	48.8323
0.00105925	48.973
0.00106537	49.1142
0.00107152	49.2557
0.00107771	49.3977
0.00108393	49.5401
0.00109018	49.6829
0.00109648	49.8261
0.00110281	49.9697
0.00110917	50.1137
0.00111558	50.2582
0.00112202	50.4031
0.0011285	50.5483
0.00113501	50.694
0.00114156	50.8402
0.00114815	50.9867
0.00115478	51.1337
0.00116145	51.281
0.00116815	51.4289
0.0011749	51.5771
0.00118168	51.7258
0.0011885	51.8749
0.00119536	52.0244
0.00120226	52.1743
0.00120921	52.3247
0.00121619	52.4755
0.00122321	52.6268
0.00123027	52.7785
0.00123737	52.9306
0.00124451	53.0832
0.0012517	53.2362
0.00125893	53.3896
0.00126619	53.5435
0.0012735	53.6978
0.00128086	53.8526
0.00128825	54.0078
0.00129569	54.1635
0.00130317	54.3196
0.00131069	54.4762
0.00131826	54.6332
0.00132587	54.7907
0.00133352	54.9486
0.00134122	55.107
0.00134896	55.2659
0.00135675	55.4251
0.00136458	55.5849
0.00137246	55.7451
0.00138038	55.9058
0.00138835	56.0669
0.00139637	56.2285
0.00140443	56.3906
0.00141254	56.5532
0.00142069	56.7162
0.00142889	56.8796
0.00143714	57.0436
0.00144544	57.208
0.00145378	57.3729
0.00146218	57.5383
0.00147062	57.7041
0.00147911	57.8705
0.00148765	58.0373
0.00149624	58.2045
0.00150487	58.3723
0.00151356	58.5406
0.0015223	58.7093
0.00153109	58.8785
0.00153993	59.0482
0.00154882	59.2184
0.00155776	59.3891
0.00156675	59.5603
0.0015758	59.732
0.00158489	59.9041
0.00159404	60.0768
0.00160325	60.25
0.0016125	60.4236
0.00162181	60.5978
0.00163117	60.7725
0.00164059	60.9476
0.00165006	61.1233
0.00165959	61.2995
0.00166917	61.4762
0.0016788	61.6534
0.0016885	61.8311
0.00169824	62.0093
0.00170805	62.188
0.00171791	62.3673
0.00172783	62.5471
0.0017378	62.7273
0.00174783	62.9081
0.00175792	63.0895
0.00176807	63.2713
0.00177828	63.4537
0.00178855	63.6366
0.00179887	63.82
0.00180926	64.004
0.0018197	64.1884
0.00183021	64.3735
0.00184077	64.559
0.0018514	64.7451
0.00186209	64.9317
0.00187284	65.1189
0.00188365	65.3066
0.00189452	65.4948
0.00190546	65.6836
0.00191646	65.8729
0.00192752	66.0628
0.00193865	66.2532
0.00194984	66.4442
0.0019611	66.6357
0.00197242	66.8278
0.00198381	67.0204
0.00199526	67.2136
0.00200678	67.4073
0.00201837	67.6016
0.00203002	67.7964
0.00204174	67.9919
0.00205353	68.1878
0.00206538	68.3844
0.0020773	68.5815
0.0020893	68.7792
0.00210136	68.9774
0.00211349	69.1762
0.00212569	69.3756
0.00213796	69.5756
0.0021503	69.7761
0.00216272	69.9772
0.0021752	70.1789
0.00218776	70.3812
0.00220039	70.5841
0.00221309	70.7875
0.00222587	70.9916
0.00223872	71.1962
0.00225165	71.4014
0.00226464	71.6072
0.00227772	71.8136
0.00229087	72.0206
0.00230409	72.2282
0.00231739	72.4364
0.00233077	72.6452
0.00234423	72.8546
0.00235776	73.0646
0.00237137	73.2752
0.00238506	73.4864
0.00239883	73.6982
0.00241268	73.9106
0.00242661	74.1237
0.00244062	74.3373
0.00245471	74.5516
0.00246888	74.7665
0.00248313	74.982
0.00249747	75.1981
0.00251189	75.4148
0.00252639	75.6322
0.00254097	75.8502
0.00255564	76.0689
0.0025704	76.2881
0.00258523	76.508
0.00260016	76.7285
0.00261517	76.9497
0.00263027	77.1715
0.00264545	77.3939
0.00266073	77.617
0.00267609	77.8407
0.00269153	78.0651
0.00270707	78.2901
0.0027227	78.5158
0.00273842	78.7421
0.00275423	78.969
0.00277013	79.1967
0.00278612	79.4249
0.00280221	79.6539
0.00281838	79.8835
0.00283465	80.1137
0.00285102	80.3446
0.00286748	80.5762
0.00288403	80.8085
0.00290068	81.0414
0.00291743	81.275
0.00293427	81.5092
0.00295121	81.7442
0.00296825	81.9798
0.00298538	82.2161
0.00300262	82.4531
0.00301995	82.6907
0.00303739	82.9291
0.00305492	83.1681
0.00307256	83.4078
0.0030903	83.6483
0.00310814	83.8894
0.00312608	84.1312
0.00314413	84.3737
0.00316228	84.6169
0.00318053	84.8608
0.0031989	85.1054
0.00321736	85.3507
0.00323594	85.5967
0.00325462	85.8434
0.00327341	86.0908
0.0032923	86.339
0.00331131	86.5878
0.00333043	86.8374
0.00334965	87.0877
0.00336899	87.3387
0.00338844	87.5905
0.003408	87.8429
0.00342768	88.0961
0.00344747	88.3501
0.00346737	88.6047
0.00348739	88.8601
0.00350752	89.1162
0.00352777	89.3731
0.00354813	89.6307
0.00356862	89.8891
0.00358922	90.1482
0.00360994	90.408
0.00363078	90.6686
0.00365174	90.9299
0.00367282	91.192
0.00369403	91.4549
0.00371535	91.7185
0.0037368	91.9829
0.00375837	92.248
0.00378007	92.5139
0.00380189	92.7805
0.00382384	93.048
0.00384592	93.3162
0.00386812	93.5851
0.00389045	93.8549
0.00391291	94.1254
0.0039355	94.3967
0.00395822	94.6688
0.00398107	94.9417
0.00400405	95.2153
0.00402717	95.4898
0.00405042	95.765
0.0040738	96.041
0.00409732	96.3179
0.00412098	96.5955
0.00414477	96.8739
0.00416869	97.1531
0.00419276	97.4332
0.00421697	97.714
0.00424131	97.9957
0.0042658	98.2781
0.00429042	98.5614
0.00431519	98.8455
0.0043401	99.1304
0.00436516	99.4161
0.00439036	99.7027
0.0044157	99.9901
0.0044412	100.278
0.00446684	100.567
0.00449262	100.857
0.00451856	101.148
0.00454465	101.439
0.00457088	101.732
0.00459727	102.025
0.00462381	102.319
0.0046505	102.614
0.00467735	102.91
0.00470435	103.206
0.00473151	103.504
0.00475883	103.799
0.0047863	104.091
0.00481393	104.384
0.00484172	104.677
0.00486968	104.972
0.00489779	105.267
0.00492606	105.563
0.0049545	105.86
0.0049831	106.158
0.00501187	106.457
0.00504081	106.757
0.00506991	107.057
0.00509918	107.358
0.00512861	107.661
0.00515822	107.964
0.005188	108.268
0.00521795	108.573
0.00524807	108.878
0.00527837	109.185
0.00530884	109.492
0.00533949	109.801
0.00537032	110.11
0.00540132	110.42
0.0054325	110.731
0.00546387	111.043
0.00549541	111.356
0.00552713	111.669
0.00555904	111.984
0.00559114	112.3
0.00562341	112.616
0.00565588	112.933
0.00568853	113.252
0.00572137	113.571
0.0057544	113.891
0.00578762	114.212
0.00582103	114.534
0.00585464	114.857
0.00588844	115.181
0.00592243	115.505
0.00595662	115.831
0.00599101	116.158
0.0060256	116.485
0.00606038	116.814
0.00609537	117.143
0.00613056	117.474
0.00616595	117.805
0.00620155	118.137
0.00623735	118.471
0.00627336	118.805
0.00630957	119.14
0.006346	119.476
0.00638263	119.813
0.00641948	120.152
0.00645654	120.491
0.00649382	120.831
0.00653131	121.172
0.00656901	121.514
0.00660693	121.857
0.00664508	122.201
0.00668344	122.546
0.00672202	122.892
0.00676083	123.239
0.00679986	123.587
0.00683912	123.936
0.0068786	124.286
0.00691831	124.637
0.00695825	124.989
0.00699842	125.342
0.00703882	125.696
0.00707946	126.051
0.00712033	126.408
0.00716143	126.765
0.00720278	127.123
0.00724436	127.482
0.00728618	127.842
0.00732825	128.204
0.00737055	128.566
0.0074131	128.93
0.0074559	129.294
0.00749894	129.66
0.00754223	130.026
0.00758578	130.394
0.00762957	130.763
0.00767361	131.132
0.00771792	131.503
0.00776247	131.875
0.00780728	132.248
0.00785236	132.622
0.00789769	132.997
0.00794328	133.374
0.00798914	133.751
0.00803526	134.129
0.00808165	134.509
0.00812831	134.89
0.00817523	135.271
0.00822243	135.654
0.0082699	136.038
0.00831764	136.423
0.00836566	136.809
0.00841395	137.197
0.00846253	137.585
0.00851138	137.975
0.00856052	138.365
0.00860994	138.757
0.00865964	139.15
0.00870964	139.544
0.00875992	139.939
0.00881049	140.336
0.00886135	140.733
0.00891251	141.132
0.00896396	141.532
0.00901571	141.933
0.00906776	142.335
0.00912011	142.738
0.00917276	143.143
0.00922571	143.548
0.00927897	143.955
0.00933254	144.363
0.00938642	144.772
0.00944061	145.183
0.00949511	145.594
0.00954993	146.007
0.00960506	146.421
0.00966051	146.836
0.00971628	147.253
0.00977237	147.67
0.00982879	148.089
0.00988553	148.509
0.0099426	148.93
0.01	149.353
0.0100577	149.776
0.0101158	150.201
0.0101742	150.627
0.0102329	151.055
0.010292	151.483
0.0103514	151.913
0.0104112	152.345
0.0104713	152.777
0.0105317	153.211
0.0105925	153.645
0.0106537	154.082
0.0107152	154.519
0.0107771	154.958
0.0108393	155.398
0.0109018	155.839
0.0109648	156.282
0.0110281	156.725
0.0110917	157.17
0.0111558	157.617
0.0112202	158.065
0.011285	158.514
0.0113501	158.964
0.0114156	159.416
0.0114815	159.869
0.0115478	160.323
0.0116145	160.778
0.0116815	161.235
0.011749	161.694
0.0118168	162.153
0.011885	162.614
0.0119536	163.076
0.0120226	163.54
0.0120921	164.005
0.0121619	164.471
0.0122321	164.939
0.0123027	165.408
0.0123737	165.878
0.0124451	166.35
0.012517	166.823
0.0125893	167.298
0.0126619	167.774
0.012735	168.251
0.0128086	168.73
0.0128825	169.21
0.0129569	169.691
0.0130317	170.174
0.0131069	170.658
0.0131826	171.144
0.0132587	171.631
0.0133352	172.12
0.0134122	172.61
0.0134896	173.101
0.0135675	173.594
0.0136458	174.088
0.0137246	174.584
0.0138038	175.081
0.0138835	175.579
0.0139637	176.079
0.0140443	176.581
0.0141254	177.084
0.0142069	177.588
0.0142889	178.094
0.0143714	178.602
0.0144544	179.111
0.0145378	179.621
0.0146218	180.133
0.0147062	180.646
0.0147911	181.161
0.0148765	181.677
0.0149624	182.195
0.0150487	182.714
0.0151356	183.235
0.015223	183.758
0.0153109	184.282
0.0153993	184.807
0.0154882	185.334
0.0155776	185.863
0.0156675	186.393
0.015758	186.924
0.0158489	187.457
0.0159404	187.992
0.0160325	188.528
0.016125	189.066
0.0162181	189.606
0.0163117	190.147
0.0164059	190.689
0.0165006	191.233
0.0165959	191.779
0.0166917	192.327
0.016788	192.876
0.016885	193.426
0.0169824	193.978
0.0170805	194.532
0.0171791	195.087
0.0172783	195.644
0.017378	196.203
0.0174783	196.763
0.0175792	197.325
0.0176807	197.889
0.0177828	198.454
0.0178855	199.021
0.0179887	199.59
0.0180926	200.16
0.018197	200.732
0.0183021	201.305
0.0184077	201.88
0.018514	202.457
0.0186209	203.036
0.0187284	203.616
0.0188365	204.198
0.0189452	204.782
0.0190546	205.116
0.0191646	205.252
0.0192752	205.39
0.0193865	205.53
0.0194984	205.671
0.019611	205.813
0.0197242	205.956
0.0198381	206.101
0.0199526	206.248
0.0200678	206.396
0.0201837	206.545
0.0203002	206.695
0.0204174	206.847
0.0205353	206.999
0.0206538	207.154
0.020773	207.309
0.020893	207.465
0.0210136	207.623
0.0211349	207.782
0.0212569	207.942
0.0213796	208.104
0.021503	208.266
0.0216272	208.43
0.021752	208.594
0.0218776	208.76
0.0220039	208.927
0.0221309	209.095
0.0222587	209.264
0.0223872	209.434
0.0225165	209.605
0.0226464	209.777
0.0227772	209.951
0.0229087	210.125
0.0230409	210.3
0.0231739	210.476
0.0233077	210.653
0.0234423	210.831
0.0235776	211.01
0.0237137	211.19
0.0238506	211.371
0.0239883	211.553
0.0241268	211.736
0.0242661	211.919
0.0244062	212.104
0.0245471	212.289
0.0246888	212.476
0.0248313	212.663
0.0249747	212.851
0.0251189	213.04
0.0252639	213.23
0.0254097	213.42
0.0255564	213.612
0.025704	213.804
0.0258523	213.997
0.0260016	214.191
0.0261517	214.386
0.0263027	214.581
0.0264545	214.777
0.0266073	214.974
0.0267609	215.172
0.0269153	215.371
0.0270707	215.57
0.027227	215.771
0.0273842	215.972
0.0275423	216.173
0.0277013	216.376
0.0278612	216.579
0.0280221	216.783
0.0281838	216.988
0.0283465	217.193
0.0285102	217.4
0.0286748	217.606
0.0288403	217.814
0.0290068	218.023
0.0291743	218.232
0.0293427	218.442
0.0295121	218.652
0.0296825	218.863
0.0298538	219.075
0.0300262	219.288
0.0301995	219.502
0.0303739	219.716
0.0305492	219.931
0.0307256	220.146
0.030903	220.362
0.0310814	220.579
0.0312608	220.797
0.0314413	221.015
0.0316228	221.235
0.0318053	221.454
0.031989	221.675
0.0321736	221.896
0.0323594	222.118
0.0325462	222.34
0.0327341	222.564
0.032923	222.787
0.0331131	223.012
0.0333043	223.237
0.0334965	223.463
0.0336899	223.69
0.0338844	223.918
0.03408	224.146
0.0342768	224.374
0.0344747	224.604
0.0346737	224.834
0.0348739	225.065
0.0350752	225.297
0.0352777	225.529
0.0354813	225.762
0.0356862	225.996
0.0358922	226.23
0.0360994	226.465
0.0363078	226.701
0.0365174	226.938
0.0367282	227.175
0.0369403	227.413
0.0371535	227.652
0.037368	227.891
0.0375837	228.131
0.0378007	228.372
0.0380189	228.614
0.0382384	228.856
0.0384592	229.099
0.0386812	229.343
0.0389045	229.587
0.0391291	229.832
0.039355	230.078
0.0395822	230.325
0.0398107	230.572
0.0400405	230.821
0.0402717	231.07
0.0405042	231.319
0.040738	231.57
0.0409732	231.821
0.0412098	232.073
0.0414477	232.326
0.0416869	232.579
0.0419276	232.834
0.0421697	233.089
0.0424131	233.345
0.042658	233.601
0.0429042	233.859
0.0431519	234.117
0.043401	234.376
0.0436516	234.636
0.0439036	234.897
0.044157	235.158
0.044412	235.42
0.0446684	235.684
0.0449262	235.947
0.0451856	236.212
0.0454465	236.478
0.0457088	236.744
0.0459727	237.011
0.0462381	237.28
0.046505	237.548
0.0467735	237.818
0.0470435	238.089
0.0473151	238.36
0.0475883	238.633
0.047863	238.906
0.0481393	239.18
0.0484172	239.455
0.0486968	239.731
0.0489779	240.008
0.0492606	240.286
0.049545	240.564
0.049831	240.844
0.0501187	241.124
0.0504081	241.406
0.0506991	241.688
0.0509918	241.971
0.0512861	242.255
0.0515822	242.54
0.05188	242.826
0.0521795	243.113
0.0524807	243.401
0.0527837	243.69
0.0530884	243.98
0.0533949	244.271
0.0537032	244.563
0.0540132	244.855
0.054325	245.149
0.0546387	245.444
0.0549541	245.74
0.0552713	246.036
0.0555904	246.334
0.0559114	246.633
0.0562341	246.933
0.0565588	247.234
0.0568853	247.535
0.0572137	247.838
0.057544	248.142
0.0578762	248.447
0.0582103	248.753
0.0585464	249.06
0.0588844	249.369
0.0592243	249.678
0.0595662	249.988
0.0599101	250.3
0.060256	250.612
0.0606038	250.926
0.0609537	251.241
0.0613056	251.556
0.0616595	251.873
0.0620155	252.191
0.0623735	252.511
0.0627336	252.831
0.0630957	253.152
0.06346	253.475
0.0638263	253.799
0.0641948	254.124
0.0645654	254.45
0.0649382	254.777
0.0653131	255.106
0.0656901	255.435
0.0660693	255.766
0.0664508	256.098
0.0668344	256.431
0.0672202	256.766
0.0676083	257.101
0.0679986	257.438
0.0683912	257.776
0.068786	258.116
0.0691831	258.456
0.0695825	258.798
0.0699842	259.141
0.0703882	259.486
0.0707946	259.831
0.0712033	260.178
0.0716143	260.526
0.0720278	260.876
0.0724436	261.227
0.0728618	261.579
0.0732825	261.932
0.0737055	262.287
0.074131	262.643
0.074559	263
0.0749894	263.359
0.0754223	263.719
0.0758578	264.08
0.0762957	264.443
0.0767361	264.807
0.0771792	265.172
0.0776247	265.539
0.0780728	265.907
0.0785236	266.276
0.0789769	266.647
0.0794328	267.02
0.0798914	267.393
0.0803526	267.768
0.0808165	268.145
0.0812831	268.523
0.0817523	268.902
0.0822243	269.283
0.082699	269.665
0.0831764	270.049
0.0836566	270.434
0.0841395	270.821
0.0846253	271.209
0.0851138	271.599
0.0856052	271.99
0.0860994	272.382
0.0865964	272.776
0.0870964	273.172
0.0875992	273.569
0.0881049	273.967
0.0886135	274.367
0.0891251	274.769
0.0896396	275.172
0.0901571	275.577
0.0906776	275.983
0.0912011	276.391
0.0917276	276.8
0.0922571	277.211
0.0927897	277.624
0.0933254	278.038
0.0938642	278.453
0.0944061	278.871
0.0949511	279.289
0.0954993	279.71
0.0960506	280.132
0.0966051	280.556
0.0971628	280.981
0.0977237	281.408
0.0982879	281.836
0.0988553	282.266
0.099426	282.698
0.1	283.132
0.100577	283.567
0.101158	284.004
0.101742	284.442
0.102329	284.883
0.10292	285.324
0.103514	285.768
0.104112	286.213
0.104713	286.66
0.105317	287.109
0.105925	287.559
0.106537	288.011
0.107152	288.465
0.107771	288.921
0.108393	289.378
0.109018	289.837
0.109648	290.298
0.110281	290.761
0.110917	291.225
0.111558	291.692
0.112202	292.16
0.11285	292.629
0.113501	293.101
0.114156	293.574
0.114815	294.049
0.115478	294.526
0.116145	295.005
0.116815	295.486
0.11749	295.968
0.118168	296.453
0.11885	296.939
0.119536	297.427
0.120226	297.917
0.120921	298.408
0.121619	298.902
0.122321	299.397
0.123027	299.895
0.123737	300.394
0.124451	300.895
0.12517	301.398
0.125893	301.903
0.126619	302.41
0.12735	302.919
0.128086	303.429
0.128825	303.942
0.129569	304.457
0.130317	304.973
0.131069	305.492
0.131826	306.012
0.132587	306.534
0.133352	307.059
0.134122	307.585
0.134896	308.113
0.135675	308.644
0.136458	309.176
0.137246	309.71
0.138038	310.246
0.138835	310.785
0.139637	311.325
0.140443	311.867
0.141254	312.411
0.142069	312.958
0.142889	313.506
0.143714	314.057
0.144544	314.609
0.145378	315.164
0.146218	315.72
0.147062	316.279
0.147911	316.839
0.148765	317.402
0.149624	317.967
0.150487	318.534
0.151356	319.103
0.15223	319.674
0.153109	320.247
0.153993	320.823
0.154882	321.4
0.155776	321.98
0.156675	322.561
0.15758	323.145
0.158489	323.731
0.159404	324.319
0.160325	324.91
0.16125	325.502
0.162181	326.096
0.163117	326.693
0.164059	327.292
0.165006	327.893
0.165959	328.496
0.166917	329.101
0.16788	329.709
0.16885	330.319
0.169824	330.931
0.170805	331.545
0.171791	332.161
0.172783	332.78
0.17378	333.4
0.174783	334.023
0.175792	334.648
0.176807	335.276
0.177828	335.905
0.178855	336.537
0.179887	337.171
0.180926	337.808
0.18197	338.446
0.183021	339.087
0.184077	339.73
0.18514	340.375
0.186209	341.023
0.187284	341.673
0.188365	342.325
0.189452	342.979
0.190546	343.636
0.191646	344.295
0.192752	344.956
0.193865	345.62
0.194984	346.285
0.19611	346.954
0.197242	347.624
0.198381	348.297
0.199526	348.972
0.200678	349.649
0.201837	350.329
0.203002	351.011
0.204174	351.695
0.205353	352.382
0.206538	353.071
0.20773	353.762
0.20893	354.455
0.210136	355.151
0.211349	355.85
0.212569	356.55
0.213796	357.253
0.21503	357.959
0.216272	358.666
0.21752	359.376
0.218776	360.089
0.220039	360.803
0.221309	361.52
0.222587	362.24
0.223872	362.962
0.225165	363.686
0.226464	364.412
0.227772	365.141
0.229087	365.873
0.230409	366.606
0.231739	367.342
0.233077	368.081
0.234423	368.821
0.235776	369.565
0.237137	370.31
0.238506	371.058
0.239883	371.808
0.241268	372.561
0.242661	373.316
0.244062	374.074
0.245471	374.834
0.246888	375.596
0.248313	376.36
0.249747	377.128
0.251189	377.897
0.252639	378.669
0.254097	379.443
0.255564	380.22
0.25704	380.999
0.258523	381.78
0.260016	382.564
0.261517	383.35
0.263027	384.139
0.264545	384.93
0.266073	385.723
0.267609	386.519
0.269153	387.317
0.270707	388.117
0.27227	388.92
0.273842	389.726
0.275423	390.533
0.277013	391.343
0.278612	392.156
0.280221	392.971
0.281838	393.788
0.283465	394.607
0.285102	395.429
0.286748	396.254
0.288403	397.08
0.290068	397.91
0.291743	398.741
0.293427	399.589
0.295121	401.012
0.296825	402.444
0.298538	403.886
0.300262	405.336
0.301995	406.796
0.303739	408.265
0.305492	409.744
0.307256	411.232
0.30903	412.729
0.310814	414.236
0.312608	415.752
0.314413	417.279
0.316228	418.815
0.318053	420.361
0.31989	421.917
0.321736	423.482
0.323594	425.058
0.325462	426.644
0.327341	428.241
0.32923	429.847
0.331131	431.465
0.333043	433.092
0.334965	434.73
0.336899	436.379
0.338844	438.038
0.3408	439.709
0.342768	441.39
0.344747	443.082
0.346737	444.785
0.348739	446.499
0.350752	448.225
0.352777	449.962
0.354813	451.71
0.356862	453.47
0.358922	455.241
0.360994	457.024
0.363078	458.819
0.365174	460.625
0.367282	462.444
0.369403	464.274
0.371535	466.117
0.37368	467.972
0.375837	469.839
0.378007	471.719
0.380189	473.611
0.382384	475.516
0.384592	477.433
0.386812	479.364
0.389045	481.307
0.391291	483.263
0.39355	485.232
0.395822	487.215
0.398107	489.211
0.400405	491.22
0.402717	493.243
0.405042	495.279
0.40738	497.329
0.409732	499.393
0.412098	501.471
0.414477	503.563
0.416869	505.67
0.419276	507.79
0.421697	509.925
0.424131	512.075
0.42658	514.239
0.429042	516.418
0.431519	518.612
0.43401	520.82
0.436516	523.044
0.439036	525.283
0.44157	527.538
0.44412	529.808
0.446684	532.093
0.449262	534.395
0.451856	536.712
0.454465	539.045
0.457088	541.394
0.459727	543.76
0.462381	546.141
0.46505	548.54
0.467735	550.955
0.470435	553.387
0.473151	555.835
0.475883	558.301
0.47863	560.597
0.481393	562.728
0.484172	564.87
0.486968	567.022
0.489779	569.184
0.492606	571.357
0.49545	573.541
0.49831	575.735
0.501187	577.94
0.504081	580.155
0.506991	582.381
0.509918	584.618
0.512861	586.866
0.515822	589.124
0.5188	591.393
0.521795	593.673
0.524807	595.964
0.527837	598.265
0.530884	600.578
0.533949	602.901
0.537032	605.235
0.540132	607.58
0.54325	609.936
0.546387	612.303
0.549541	614.681
0.552713	617.07
0.555904	619.471
0.559114	621.882
0.562341	624.304
0.565588	626.737
0.568853	629.182
0.572137	631.637
0.57544	634.104
0.578762	636.582
0.582103	639.071
0.585464	641.572
0.588844	644.083
0.592243	646.606
0.595662	649.14
0.599101	651.685
0.60256	654.242
0.606038	656.81
0.609537	659.389
