Stopping power dEdx from Ionisation for Fe56[0.0] Z = 26 in G4_TISSUE_SOFT_ICRP, process name: ionIoni
E [MeV]	dEdx [MeV/mm]
0.001	68.7155
0.00100577	68.9136
0.00101158	69.1122
0.00101742	69.3114
0.00102329	69.5112
0.0010292	69.7116
0.00103514	69.9125
0.00104112	70.114
0.00104713	70.3161
0.00105317	70.5188
0.00105925	70.722
0.00106537	70.9259
0.00107152	71.1303
0.00107771	71.3354
0.00108393	71.541
0.00109018	71.7472
0.00109648	71.954
0.00110281	72.1614
0.00110917	72.3694
0.00111558	72.578
0.00112202	72.7872
0.0011285	72.997
0.00113501	73.2074
0.00114156	73.4184
0.00114815	73.63
0.00115478	73.8422
0.00116145	74.0551
0.00116815	74.2685
0.0011749	74.4826
0.00118168	74.6973
0.0011885	74.9126
0.00119536	75.1285
0.00120226	75.3451
0.00120921	75.5622
0.00121619	75.78
0.00122321	75.9985
0.00123027	76.2175
0.00123737	76.4372
0.00124451	76.6575
0.0012517	76.8785
0.00125893	77.1001
0.00126619	77.3223
0.0012735	77.5452
0.00128086	77.7687
0.00128825	77.9929
0.00129569	78.2177
0.00130317	78.4431
0.00131069	78.6692
0.00131826	78.896
0.00132587	79.1234
0.00133352	79.3514
0.00134122	79.5802
0.00134896	79.8095
0.00135675	80.0396
0.00136458	80.2703
0.00137246	80.5017
0.00138038	80.7337
0.00138835	80.9664
0.00139637	81.1998
0.00140443	81.4338
0.00141254	81.6685
0.00142069	81.9039
0.00142889	82.14
0.00143714	82.3768
0.00144544	82.6142
0.00145378	82.8523
0.00146218	83.0912
0.00147062	83.3307
0.00147911	83.5708
0.00148765	83.8117
0.00149624	84.0533
0.00150487	84.2956
0.00151356	84.5386
0.0015223	84.7822
0.00153109	85.0266
0.00153993	85.2717
0.00154882	85.5175
0.00155776	85.764
0.00156675	86.0112
0.0015758	86.2591
0.00158489	86.5077
0.00159404	86.7571
0.00160325	87.0071
0.0016125	87.2579
0.00162181	87.5094
0.00163117	87.7617
0.00164059	88.0146
0.00165006	88.2683
0.00165959	88.5227
0.00166917	88.7779
0.0016788	89.0338
0.0016885	89.2904
0.00169824	89.5478
0.00170805	89.8059
0.00171791	90.0647
0.00172783	90.3243
0.0017378	90.5847
0.00174783	90.8458
0.00175792	91.1076
0.00176807	91.3702
0.00177828	91.6336
0.00178855	91.8977
0.00179887	92.1626
0.00180926	92.4283
0.0018197	92.6947
0.00183021	92.9619
0.00184077	93.2298
0.0018514	93.4985
0.00186209	93.768
0.00187284	94.0383
0.00188365	94.3094
0.00189452	94.5812
0.00190546	94.8538
0.00191646	95.1272
0.00192752	95.4014
0.00193865	95.6764
0.00194984	95.9522
0.0019611	96.2287
0.00197242	96.5061
0.00198381	96.7843
0.00199526	97.0632
0.00200678	97.343
0.00201837	97.6236
0.00203002	97.905
0.00204174	98.1872
0.00205353	98.4702
0.00206538	98.754
0.0020773	99.0387
0.0020893	99.3241
0.00210136	99.6104
0.00211349	99.8975
0.00212569	100.185
0.00213796	100.474
0.0021503	100.764
0.00216272	101.054
0.0021752	101.346
0.00218776	101.638
0.00220039	101.931
0.00221309	102.224
0.00222587	102.519
0.00223872	102.815
0.00225165	103.111
0.00226464	103.408
0.00227772	103.706
0.00229087	104.005
0.00230409	104.305
0.00231739	104.606
0.00233077	104.907
0.00234423	105.209
0.00235776	105.513
0.00237137	105.817
0.00238506	106.122
0.00239883	106.428
0.00241268	106.734
0.00242661	107.042
0.00244062	107.351
0.00245471	107.66
0.00246888	107.97
0.00248313	108.282
0.00249747	108.594
0.00251189	108.907
0.00252639	109.221
0.00254097	109.535
0.00255564	109.851
0.0025704	110.168
0.00258523	110.485
0.00260016	110.804
0.00261517	111.123
0.00263027	111.444
0.00264545	111.765
0.00266073	112.087
0.00267609	112.41
0.00269153	112.734
0.00270707	113.059
0.0027227	113.385
0.00273842	113.712
0.00275423	114.039
0.00277013	114.368
0.00278612	114.698
0.00280221	115.028
0.00281838	115.36
0.00283465	115.692
0.00285102	116.026
0.00286748	116.36
0.00288403	116.696
0.00290068	117.032
0.00291743	117.369
0.00293427	117.708
0.00295121	118.047
0.00296825	118.387
0.00298538	118.728
0.00300262	119.071
0.00301995	119.414
0.00303739	119.758
0.00305492	120.103
0.00307256	120.449
0.0030903	120.797
0.00310814	121.145
0.00312608	121.494
0.00314413	121.844
0.00316228	122.195
0.00318053	122.548
0.0031989	122.901
0.00321736	123.255
0.00323594	123.61
0.00325462	123.967
0.00327341	124.324
0.0032923	124.682
0.00331131	125.042
0.00333043	125.402
0.00334965	125.764
0.00336899	126.126
0.00338844	126.49
0.003408	126.854
0.00342768	127.22
0.00344747	127.587
0.00346737	127.954
0.00348739	128.323
0.00350752	128.693
0.00352777	129.064
0.00354813	129.436
0.00356862	129.809
0.00358922	130.183
0.00360994	130.558
0.00363078	130.935
0.00365174	131.312
0.00367282	131.691
0.00369403	132.07
0.00371535	132.451
0.0037368	132.833
0.00375837	133.216
0.00378007	133.599
0.00380189	133.985
0.00382384	134.371
0.00384592	134.758
0.00386812	135.147
0.00389045	135.536
0.00391291	135.927
0.0039355	136.319
0.00395822	136.711
0.00398107	137.105
0.00400405	137.501
0.00402717	137.897
0.00405042	138.294
0.0040738	138.693
0.00409732	139.093
0.00412098	139.494
0.00414477	139.896
0.00416869	140.299
0.00419276	140.703
0.00421697	141.109
0.00424131	141.516
0.0042658	141.924
0.00429042	142.333
0.00431519	142.743
0.0043401	143.154
0.00436516	143.567
0.00439036	143.981
0.0044157	144.396
0.0044412	144.812
0.00446684	145.229
0.00449262	145.648
0.00451856	146.068
0.00454465	146.489
0.00457088	146.911
0.00459727	147.335
0.00462381	147.759
0.0046505	148.185
0.00467735	148.612
0.00470435	149.041
0.00473151	149.47
0.00475883	149.901
0.0047863	150.333
0.00481393	150.766
0.00484172	151.201
0.00486968	151.637
0.00489779	152.074
0.00492606	152.512
0.0049545	152.952
0.0049831	153.393
0.00501187	153.835
0.00504081	154.278
0.00506991	154.723
0.00509918	155.169
0.00512861	155.616
0.00515822	156.065
0.005188	156.515
0.00521795	156.966
0.00524807	157.418
0.00527837	157.872
0.00530884	158.327
0.00533949	158.783
0.00537032	159.241
0.00540132	159.7
0.0054325	160.16
0.00546387	160.622
0.00549541	161.085
0.00552713	161.549
0.00555904	162.015
0.00559114	162.482
0.00562341	162.95
0.00565588	163.42
0.00568853	163.891
0.00572137	164.363
0.0057544	164.837
0.00578762	165.312
0.00582103	165.789
0.00585464	166.267
0.00588844	166.746
0.00592243	167.226
0.00595662	167.708
0.00599101	168.192
0.0060256	168.677
0.00606038	169.163
0.00609537	169.65
0.00613056	170.139
0.00616595	170.63
0.00620155	171.122
0.00623735	171.615
0.00627336	172.109
0.00630957	172.606
0.006346	173.103
0.00638263	173.602
0.00641948	174.102
0.00645654	174.604
0.00649382	175.108
0.00653131	175.612
0.00656901	176.118
0.00660693	176.626
0.00664508	177.135
0.00668344	177.646
0.00672202	178.158
0.00676083	178.671
0.00679986	179.186
0.00683912	179.703
0.0068786	180.221
0.00691831	180.74
0.00695825	181.261
0.00699842	181.784
0.00703882	182.308
0.00707946	182.833
0.00712033	183.36
0.00716143	183.889
0.00720278	184.419
0.00724436	184.95
0.00728618	185.483
0.00732825	186.018
0.00737055	186.554
0.0074131	187.092
0.0074559	187.631
0.00749894	188.172
0.00754223	188.714
0.00758578	189.258
0.00762957	189.804
0.00767361	190.351
0.00771792	190.9
0.00776247	191.45
0.00780728	192.002
0.00785236	192.555
0.00789769	193.11
0.00794328	193.667
0.00798914	194.225
0.00803526	194.785
0.00808165	195.346
0.00812831	195.909
0.00817523	196.474
0.00822243	197.04
0.0082699	197.608
0.00831764	198.178
0.00836566	198.749
0.00841395	199.322
0.00846253	199.896
0.00851138	200.473
0.00856052	201.05
0.00860994	201.63
0.00865964	202.211
0.00870964	202.794
0.00875992	203.378
0.00881049	203.965
0.00886135	204.553
0.00891251	205.142
0.00896396	205.733
0.00901571	206.326
0.00906776	206.921
0.00912011	207.518
0.00917276	208.116
0.00922571	208.716
0.00927897	209.317
0.00933254	209.92
0.00938642	210.526
0.00944061	211.132
0.00949511	211.741
0.00954993	212.351
0.00960506	212.963
0.00966051	213.577
0.00971628	214.193
0.00977237	214.81
0.00982879	215.429
0.00988553	216.05
0.0099426	216.673
0.01	217.298
0.0100577	217.924
0.0101158	218.552
0.0101742	219.182
0.0102329	219.814
0.010292	220.447
0.0103514	221.083
0.0104112	221.72
0.0104713	222.359
0.0105317	223
0.0105925	223.643
0.0106537	224.287
0.0107152	224.934
0.0107771	225.582
0.0108393	226.232
0.0109018	226.884
0.0109648	227.538
0.0110281	228.194
0.0110917	228.852
0.0111558	229.512
0.0112202	230.173
0.011285	230.837
0.0113501	231.502
0.0114156	232.169
0.0114815	232.839
0.0115478	233.51
0.0116145	234.183
0.0116815	234.858
0.011749	235.535
0.0118168	236.214
0.011885	236.894
0.0119536	237.577
0.0120226	238.262
0.0120921	238.949
0.0121619	239.638
0.0122321	240.328
0.0123027	241.021
0.0123737	241.716
0.0124451	242.412
0.012517	243.111
0.0125893	243.812
0.0126619	244.515
0.012735	245.219
0.0128086	245.926
0.0128825	246.635
0.0129569	247.346
0.0130317	248.059
0.0131069	248.774
0.0131826	249.491
0.0132587	250.21
0.0133352	250.931
0.0134122	251.655
0.0134896	252.38
0.0135675	253.107
0.0136458	253.837
0.0137246	254.569
0.0138038	255.302
0.0138835	256.038
0.0139637	256.776
0.0140443	257.501
0.0141254	258.225
0.0142069	258.952
0.0142889	259.68
0.0143714	260.411
0.0144544	261.143
0.0145378	261.878
0.0146218	262.615
0.0147062	263.354
0.0147911	264.095
0.0148765	264.838
0.0149624	265.584
0.0150487	266.331
0.0151356	267.081
0.015223	267.833
0.0153109	268.587
0.0153993	269.343
0.0154882	270.102
0.0155776	270.862
0.0156675	271.625
0.015758	272.39
0.0158489	273.157
0.0159404	273.926
0.0160325	274.698
0.016125	275.472
0.0162181	276.248
0.0163117	277.026
0.0164059	277.807
0.0165006	278.589
0.0165959	279.374
0.0166917	280.162
0.016788	280.951
0.016885	281.743
0.0169824	282.537
0.0170805	283.334
0.0171791	284.132
0.0172783	284.933
0.017378	285.737
0.0174783	286.542
0.0175792	287.35
0.0176807	288.161
0.0177828	288.973
0.0178855	289.788
0.0179887	290.606
0.0180926	291.425
0.018197	292.247
0.0183021	293.072
0.0184077	293.899
0.018514	294.728
0.0186209	295.559
0.0187284	296.393
0.0188365	297.23
0.0189452	298.069
0.0190546	298.91
0.0191646	299.754
0.0192752	300.6
0.0193865	301.448
0.0194984	302.299
0.019611	303.153
0.0197242	304.009
0.0198381	304.867
0.0199526	305.728
0.0200678	306.591
0.0201837	307.457
0.0203002	308.326
0.0204174	309.197
0.0205353	310.07
0.0206538	310.946
0.020773	311.824
0.020893	312.705
0.0210136	313.589
0.0211349	314.475
0.0212569	315.364
0.0213796	316.255
0.021503	317.149
0.0216272	318.045
0.021752	318.944
0.0218776	319.846
0.0220039	320.75
0.0221309	321.657
0.0222587	322.566
0.0223872	323.478
0.0225165	324.393
0.0226464	325.31
0.0227772	326.23
0.0229087	327.153
0.0230409	328.078
0.0231739	329.006
0.0233077	329.937
0.0234423	330.871
0.0235776	331.807
0.0237137	332.746
0.0238506	333.687
0.0239883	334.631
0.0241268	335.578
0.0242661	336.528
0.0244062	337.481
0.0245471	338.436
0.0246888	339.394
0.0248313	340.355
0.0249747	341.318
0.0251189	342.285
0.0252639	343.254
0.0254097	344.226
0.0255564	345.201
0.025704	346.179
0.0258523	347.159
0.0260016	348.142
0.0261517	349.129
0.0263027	350.118
0.0264545	351.11
0.0266073	352.104
0.0267609	353.102
0.0269153	354.103
0.0270707	355.106
0.027227	356.112
0.0273842	357.122
0.0275423	358.134
0.0277013	359.149
0.0278612	360.167
0.0280221	361.188
0.0281838	362.212
0.0283465	363.239
0.0285102	364.269
0.0286748	365.302
0.0288403	366.338
0.0290068	367.377
0.0291743	368.419
0.0293427	369.464
0.0295121	370.512
0.0296825	371.564
0.0298538	372.618
0.0300262	373.675
0.0301995	374.735
0.0303739	375.799
0.0305492	376.865
0.0307256	377.935
0.030903	379.007
0.0310814	380.083
0.0312608	381.162
0.0314413	382.244
0.0316228	383.329
0.0318053	384.418
0.031989	385.509
0.0321736	386.604
0.0323594	387.702
0.0325462	388.803
0.0327341	389.907
0.032923	391.015
0.0331131	392.126
0.0333043	393.239
0.0334965	394.357
0.0336899	395.477
0.0338844	396.601
0.03408	397.728
0.0342768	398.858
0.0344747	399.992
0.0346737	401.128
0.0348739	402.269
0.0350752	403.412
0.0352777	404.559
0.0354813	405.709
0.0356862	406.863
0.0358922	408.019
0.0360994	409.18
0.0363078	410.343
0.0365174	411.51
0.0367282	412.681
0.0369403	413.854
0.0371535	415.032
0.037368	416.212
0.0375837	417.396
0.0378007	418.584
0.0380189	419.775
0.0382384	420.969
0.0384592	422.167
0.0386812	423.369
0.0389045	424.574
0.0391291	425.782
0.039355	426.994
0.0395822	428.21
0.0398107	429.429
0.0400405	430.651
0.0402717	431.877
0.0405042	433.107
0.040738	434.34
0.0409732	435.577
0.0412098	436.818
0.0414477	438.062
0.0416869	439.31
0.0419276	440.561
0.0421697	441.816
0.0424131	443.075
0.042658	444.338
0.0429042	445.604
0.0431519	446.874
0.043401	448.147
0.0436516	449.424
0.0439036	450.705
0.044157	451.99
0.044412	453.278
0.0446684	454.571
0.0449262	455.867
0.0451856	457.166
0.0454465	458.47
0.0457088	459.777
0.0459727	461.089
0.0462381	462.404
0.046505	463.722
0.0467735	465.045
0.0470435	466.372
0.0473151	467.702
0.0475883	469.037
0.047863	470.375
0.0481393	471.717
0.0484172	473.063
0.0486968	474.413
0.0489779	475.767
0.0492606	477.125
0.049545	478.487
0.049831	479.853
0.0501187	481.223
0.0504081	482.597
0.0506991	483.974
0.0509918	485.356
0.0512861	486.742
0.0515822	488.132
0.05188	489.526
0.0521795	490.925
0.0524807	492.327
0.0527837	493.733
0.0530884	495.144
0.0533949	496.558
0.0537032	497.977
0.0540132	499.4
0.054325	500.827
0.0546387	502.258
0.0549541	503.694
0.0552713	505.133
0.0555904	506.577
0.0559114	508.025
0.0562341	508.394
0.0565588	508.734
0.0568853	509.077
0.0572137	509.424
0.057544	509.774
0.0578762	510.128
0.0582103	510.485
0.0585464	510.846
0.0588844	511.21
0.0592243	511.578
0.0595662	511.948
0.0599101	512.322
0.060256	512.699
0.0606038	513.079
0.0609537	513.462
0.0613056	513.849
0.0616595	514.238
0.0620155	514.63
0.0623735	515.025
0.0627336	515.423
0.0630957	515.824
0.06346	516.228
0.0638263	516.634
0.0641948	517.043
0.0645654	517.455
0.0649382	517.87
0.0653131	518.287
0.0656901	518.707
0.0660693	519.13
0.0664508	519.555
0.0668344	519.982
0.0672202	520.412
0.0676083	520.845
0.0679986	521.28
0.0683912	521.718
0.068786	522.157
0.0691831	522.6
0.0695825	523.044
0.0699842	523.491
0.0703882	523.94
0.0707946	524.392
0.0712033	524.846
0.0716143	525.302
0.0720278	525.76
0.0724436	526.22
0.0728618	526.683
0.0732825	527.147
0.0737055	527.614
0.074131	528.083
0.074559	528.554
0.0749894	529.027
0.0754223	529.503
0.0758578	529.98
0.0762957	530.459
0.0767361	530.94
0.0771792	531.424
0.0776247	531.909
0.0780728	532.396
0.0785236	532.885
0.0789769	533.376
0.0794328	533.869
0.0798914	534.364
0.0803526	534.861
0.0808165	535.36
0.0812831	535.861
0.0817523	536.363
0.0822243	536.868
0.082699	537.374
0.0831764	537.882
0.0836566	538.392
0.0841395	538.904
0.0846253	539.417
0.0851138	539.933
0.0856052	540.45
0.0860994	540.969
0.0865964	541.49
0.0870964	542.012
0.0875992	542.536
0.0881049	543.062
0.0886135	543.59
0.0891251	544.12
0.0896396	544.651
0.0901571	545.184
0.0906776	545.719
0.0912011	546.256
0.0917276	546.794
0.0922571	547.334
0.0927897	547.876
0.0933254	548.419
0.0938642	548.965
0.0944061	549.512
0.0949511	550.06
0.0954993	550.611
0.0960506	551.163
0.0966051	551.717
0.0971628	552.272
0.0977237	552.83
0.0982879	553.389
0.0988553	553.95
0.099426	554.512
0.1	555.076
0.100577	555.642
0.101158	556.21
0.101742	556.779
0.102329	557.35
0.10292	557.923
0.103514	558.498
0.104112	559.074
0.104713	559.652
0.105317	560.232
0.105925	560.814
0.106537	561.397
0.107152	561.982
0.107771	562.569
0.108393	563.158
0.109018	563.748
0.109648	564.34
0.110281	564.934
0.110917	565.53
0.111558	566.127
0.112202	566.727
0.11285	567.328
0.113501	567.931
0.114156	568.536
0.114815	569.142
0.115478	569.751
0.116145	570.361
0.116815	570.973
0.11749	571.587
0.118168	572.203
0.11885	572.82
0.119536	573.44
0.120226	574.061
0.120921	574.685
0.121619	575.31
0.122321	575.937
0.123027	576.566
0.123737	577.197
0.124451	577.83
0.12517	578.465
0.125893	579.102
0.126619	579.74
0.12735	580.381
0.128086	581.024
0.128825	581.669
0.129569	582.315
0.130317	582.964
0.131069	583.615
0.131826	584.268
0.132587	584.922
0.133352	585.579
0.134122	586.238
0.134896	586.899
0.135675	587.562
0.136458	588.228
0.137246	588.895
0.138038	589.564
0.138835	590.236
0.139637	590.91
0.140443	591.585
0.141254	592.263
0.142069	592.944
0.142889	593.626
0.143714	594.311
0.144544	594.997
0.145378	595.686
0.146218	596.378
0.147062	597.071
0.147911	597.767
0.148765	598.465
0.149624	599.166
0.150487	599.868
0.151356	600.573
0.15223	601.281
0.153109	601.99
0.153993	602.702
0.154882	603.417
0.155776	604.134
0.156675	604.853
0.15758	605.574
0.158489	606.298
0.159404	607.025
0.160325	607.754
0.16125	608.485
0.162181	609.219
0.163117	609.955
0.164059	610.694
0.165006	611.436
0.165959	612.18
0.166917	612.926
0.16788	613.675
0.16885	614.427
0.169824	615.181
0.170805	615.938
0.171791	616.697
0.172783	617.459
0.17378	618.224
0.174783	618.991
0.175792	619.762
0.176807	620.534
0.177828	621.31
0.178855	622.088
0.179887	622.869
0.180926	623.653
0.18197	624.439
0.183021	625.229
0.184077	626.021
0.18514	626.816
0.186209	627.614
0.187284	628.414
0.188365	629.218
0.189452	630.024
0.190546	630.833
0.191646	631.645
0.192752	632.46
0.193865	633.279
0.194984	634.1
0.19611	634.923
0.197242	635.75
0.198381	636.58
0.199526	637.413
0.200678	638.249
0.201837	639.088
0.203002	639.931
0.204174	640.776
0.205353	641.624
0.206538	642.476
0.20773	643.33
0.20893	644.188
0.210136	645.049
0.211349	645.913
0.212569	646.78
0.213796	647.65
0.21503	648.524
0.216272	649.401
0.21752	650.281
0.218776	651.165
0.220039	652.051
0.221309	652.941
0.222587	653.835
0.223872	654.731
0.225165	655.631
0.226464	656.535
0.227772	657.442
0.229087	658.352
0.230409	659.266
0.231739	660.183
0.233077	661.103
0.234423	662.027
0.235776	662.955
0.237137	663.885
0.238506	664.82
0.239883	665.758
0.241268	666.7
0.242661	667.645
0.244062	668.593
0.245471	669.546
0.246888	670.502
0.248313	671.461
0.249747	672.424
0.251189	673.391
0.252639	674.362
0.254097	675.336
0.255564	676.314
0.25704	677.295
0.258523	678.281
0.260016	679.27
0.261517	680.263
0.263027	681.259
0.264545	682.26
0.266073	683.264
0.267609	684.272
0.269153	685.285
0.270707	686.3
0.27227	687.32
0.273842	688.344
0.275423	689.371
0.277013	690.403
0.278612	691.438
0.280221	692.478
0.281838	693.521
0.283465	694.569
0.285102	695.62
0.286748	696.676
0.288403	697.735
0.290068	698.799
0.291743	699.866
0.293427	700.938
0.295121	702.014
0.296825	703.094
0.298538	704.178
0.300262	705.267
0.301995	706.359
0.303739	707.456
0.305492	708.557
0.307256	709.662
0.30903	710.771
0.310814	711.885
0.312608	713.002
0.314413	714.125
0.316228	715.251
0.318053	716.382
0.31989	717.517
0.321736	718.656
0.323594	719.8
0.325462	720.948
0.327341	722.101
0.32923	723.258
0.331131	724.419
0.333043	725.585
0.334965	726.755
0.336899	727.93
0.338844	729.109
0.3408	730.293
0.342768	731.481
0.344747	732.674
0.346737	733.872
0.348739	735.074
0.350752	736.28
0.352777	737.491
0.354813	738.707
0.356862	739.927
0.358922	741.152
0.360994	742.382
0.363078	743.616
0.365174	744.855
0.367282	746.099
0.369403	747.347
0.371535	748.6
0.37368	749.858
0.375837	751.121
0.378007	752.388
0.380189	753.661
0.382384	754.938
0.384592	756.22
0.386812	757.506
0.389045	758.798
0.391291	760.094
0.39355	761.395
0.395822	762.702
0.398107	764.013
0.400405	765.329
0.402717	766.649
0.405042	767.975
0.40738	769.306
0.409732	770.642
0.412098	771.983
0.414477	773.329
0.416869	774.679
0.419276	776.035
0.421697	777.396
0.424131	778.762
0.42658	780.133
0.429042	781.509
0.431519	782.891
0.43401	784.277
0.436516	785.668
0.439036	787.065
0.44157	788.467
0.44412	789.874
0.446684	791.286
0.449262	792.703
0.451856	794.126
0.454465	795.554
0.457088	796.987
0.459727	798.425
0.462381	799.868
0.46505	801.317
0.467735	802.771
0.470435	804.231
0.473151	805.695
0.475883	807.165
0.47863	808.641
0.481393	810.121
0.484172	811.607
0.486968	813.099
0.489779	814.596
0.492606	816.098
0.49545	817.606
0.49831	819.119
0.501187	820.637
0.504081	822.161
0.506991	823.69
0.509918	825.225
0.512861	826.766
0.515822	828.312
0.5188	829.863
0.521795	831.42
0.524807	832.982
0.527837	834.55
0.530884	836.123
0.533949	837.702
0.537032	839.287
0.540132	840.877
0.54325	842.473
0.546387	844.074
0.549541	845.681
0.552713	847.294
0.555904	848.912
0.559114	850.536
0.562341	852.165
0.565588	853.8
0.568853	855.441
0.572137	857.088
0.57544	858.74
0.578762	860.398
0.582103	862.061
0.585464	863.731
0.588844	865.406
0.592243	867.086
0.595662	868.773
0.599101	870.465
0.60256	872.163
0.606038	873.867
0.609537	875.576
