Stopping power dEdx from Ionisation for Fe56[0.0] Z = 26 in Water, process name: ionIoni
E [MeV]	dEdx [MeV/mm]
0.001	21.6738
0.00100577	21.7366
0.00101158	21.7996
0.00101742	21.8627
0.00102329	21.9261
0.0010292	21.9896
0.00103514	22.0534
0.00104112	22.1173
0.00104713	22.1814
0.00105317	22.2456
0.00105925	22.3101
0.00106537	22.3748
0.00107152	22.4396
0.00107771	22.5046
0.00108393	22.5698
0.00109018	22.6352
0.00109648	22.7008
0.00110281	22.7666
0.00110917	22.8325
0.00111558	22.8987
0.00112202	22.965
0.0011285	23.0316
0.00113501	23.0983
0.00114156	23.1652
0.00114815	23.2323
0.00115478	23.2996
0.00116145	23.3671
0.00116815	23.4348
0.0011749	23.5027
0.00118168	23.5708
0.0011885	23.6391
0.00119536	23.7076
0.00120226	23.7763
0.00120921	23.8451
0.00121619	23.9142
0.00122321	23.9835
0.00123027	24.0529
0.00123737	24.1226
0.00124451	24.1925
0.0012517	24.2626
0.00125893	24.3328
0.00126619	24.4033
0.0012735	24.474
0.00128086	24.5449
0.00128825	24.616
0.00129569	24.6873
0.00130317	24.7588
0.00131069	24.8305
0.00131826	24.9024
0.00132587	24.9745
0.00133352	25.0468
0.00134122	25.1194
0.00134896	25.1921
0.00135675	25.2651
0.00136458	25.3382
0.00137246	25.4116
0.00138038	25.4852
0.00138835	25.559
0.00139637	25.633
0.00140443	25.7072
0.00141254	25.7817
0.00142069	25.8563
0.00142889	25.9312
0.00143714	26.0063
0.00144544	26.0816
0.00145378	26.1571
0.00146218	26.2329
0.00147062	26.3088
0.00147911	26.385
0.00148765	26.4614
0.00149624	26.538
0.00150487	26.6148
0.00151356	26.6919
0.0015223	26.7692
0.00153109	26.8467
0.00153993	26.9244
0.00154882	27.0023
0.00155776	27.0805
0.00156675	27.1589
0.0015758	27.2375
0.00158489	27.3164
0.00159404	27.3955
0.00160325	27.4748
0.0016125	27.5543
0.00162181	27.6341
0.00163117	27.7141
0.00164059	27.7943
0.00165006	27.8747
0.00165959	27.9554
0.00166917	28.0363
0.0016788	28.1175
0.0016885	28.1989
0.00169824	28.2805
0.00170805	28.3624
0.00171791	28.4445
0.00172783	28.5268
0.0017378	28.6094
0.00174783	28.6922
0.00175792	28.7752
0.00176807	28.8585
0.00177828	28.942
0.00178855	29.0258
0.00179887	29.1098
0.00180926	29.194
0.0018197	29.2785
0.00183021	29.3633
0.00184077	29.4482
0.0018514	29.5335
0.00186209	29.6189
0.00187284	29.7046
0.00188365	29.7906
0.00189452	29.8768
0.00190546	29.9633
0.00191646	30.05
0.00192752	30.1369
0.00193865	30.2241
0.00194984	30.3116
0.0019611	30.3993
0.00197242	30.4873
0.00198381	30.5755
0.00199526	30.664
0.00200678	30.7527
0.00201837	30.8417
0.00203002	30.9309
0.00204174	31.0204
0.00205353	31.1102
0.00206538	31.2002
0.0020773	31.2905
0.0020893	31.381
0.00210136	31.4718
0.00211349	31.5628
0.00212569	31.6542
0.00213796	31.7457
0.0021503	31.8376
0.00216272	31.9297
0.0021752	32.0221
0.00218776	32.1147
0.00220039	32.2076
0.00221309	32.3008
0.00222587	32.3942
0.00223872	32.488
0.00225165	32.5819
0.00226464	32.6762
0.00227772	32.7707
0.00229087	32.8655
0.00230409	32.9606
0.00231739	33.0559
0.00233077	33.1516
0.00234423	33.2475
0.00235776	33.3436
0.00237137	33.4401
0.00238506	33.5368
0.00239883	33.6338
0.00241268	33.7311
0.00242661	33.8287
0.00244062	33.9265
0.00245471	34.0247
0.00246888	34.1231
0.00248313	34.2218
0.00249747	34.3208
0.00251189	34.42
0.00252639	34.5196
0.00254097	34.6194
0.00255564	34.7196
0.0025704	34.82
0.00258523	34.9207
0.00260016	35.0217
0.00261517	35.123
0.00263027	35.2245
0.00264545	35.3264
0.00266073	35.4286
0.00267609	35.531
0.00269153	35.6338
0.00270707	35.7368
0.0027227	35.8402
0.00273842	35.9438
0.00275423	36.0478
0.00277013	36.152
0.00278612	36.2566
0.00280221	36.3614
0.00281838	36.4666
0.00283465	36.572
0.00285102	36.6778
0.00286748	36.7838
0.00288403	36.8902
0.00290068	36.9969
0.00291743	37.1039
0.00293427	37.2112
0.00295121	37.3188
0.00296825	37.4267
0.00298538	37.5349
0.00300262	37.6434
0.00301995	37.7523
0.00303739	37.8614
0.00305492	37.9709
0.00307256	38.0807
0.0030903	38.1908
0.00310814	38.3012
0.00312608	38.412
0.00314413	38.523
0.00316228	38.6344
0.00318053	38.7461
0.0031989	38.8581
0.00321736	38.9705
0.00323594	39.0831
0.00325462	39.1961
0.00327341	39.3094
0.0032923	39.4231
0.00331131	39.5371
0.00333043	39.6514
0.00334965	39.766
0.00336899	39.881
0.00338844	39.9963
0.003408	40.1119
0.00342768	40.2278
0.00344747	40.3441
0.00346737	40.4608
0.00348739	40.5777
0.00350752	40.695
0.00352777	40.8127
0.00354813	40.9307
0.00356862	41.049
0.00358922	41.1676
0.00360994	41.2866
0.00363078	41.406
0.00365174	41.5257
0.00367282	41.6457
0.00369403	41.7661
0.00371535	41.8868
0.0037368	42.0079
0.00375837	42.1293
0.00378007	42.2511
0.00380189	42.3732
0.00382384	42.4957
0.00384592	42.6185
0.00386812	42.7417
0.00389045	42.8653
0.00391291	42.9892
0.0039355	43.1134
0.00395822	43.238
0.00398107	43.363
0.00400405	43.4883
0.00402717	43.614
0.00405042	43.7401
0.0040738	43.8665
0.00409732	43.9933
0.00412098	44.1204
0.00414477	44.2479
0.00416869	44.3758
0.00419276	44.5041
0.00421697	44.6327
0.00424131	44.7617
0.0042658	44.891
0.00429042	45.0208
0.00431519	45.1509
0.0043401	45.2814
0.00436516	45.4122
0.00439036	45.5435
0.0044157	45.6751
0.0044412	45.8071
0.00446684	45.9394
0.00449262	46.0722
0.00451856	46.2053
0.00454465	46.3389
0.00457088	46.4728
0.00459727	46.6071
0.00462381	46.7417
0.0046505	46.8768
0.00467735	47.0123
0.00470435	47.1481
0.00473151	47.2844
0.00475883	47.5397
0.0047863	47.6768
0.00481393	47.8142
0.00484172	47.952
0.00486968	48.0902
0.00489779	48.2288
0.00492606	48.3678
0.0049545	48.5073
0.0049831	48.6471
0.00501187	48.7873
0.00504081	48.9279
0.00506991	49.0689
0.00509918	49.2104
0.00512861	49.3522
0.00515822	49.4945
0.005188	49.6371
0.00521795	49.7802
0.00524807	49.9237
0.00527837	50.0676
0.00530884	50.2119
0.00533949	50.3566
0.00537032	50.5018
0.00540132	50.6473
0.0054325	50.7933
0.00546387	50.9397
0.00549541	51.0866
0.00552713	51.2338
0.00555904	51.3815
0.00559114	51.5296
0.00562341	51.6781
0.00565588	51.8271
0.00568853	51.9765
0.00572137	52.1263
0.0057544	52.2765
0.00578762	52.4272
0.00582103	52.5783
0.00585464	52.7299
0.00588844	52.8819
0.00592243	53.0343
0.00595662	53.1871
0.00599101	53.3405
0.0060256	53.4942
0.00606038	53.6484
0.00609537	53.803
0.00613056	53.9581
0.00616595	54.1136
0.00620155	54.2696
0.00623735	54.426
0.00627336	54.5829
0.00630957	54.7402
0.006346	54.898
0.00638263	55.0563
0.00641948	55.215
0.00645654	55.3741
0.00649382	55.5337
0.00653131	55.6938
0.00656901	55.8543
0.00660693	56.0153
0.00664508	56.1768
0.00668344	56.3387
0.00672202	56.5011
0.00676083	56.6639
0.00679986	56.8273
0.00683912	56.9911
0.0068786	57.1553
0.00691831	57.3201
0.00695825	57.4853
0.00699842	57.651
0.00703882	57.8172
0.00707946	57.9838
0.00712033	58.1509
0.00716143	58.3185
0.00720278	58.4866
0.00724436	58.6552
0.00728618	58.8243
0.00732825	58.9938
0.00737055	59.1639
0.0074131	59.3344
0.0074559	59.5054
0.00749894	59.677
0.00754223	59.849
0.00758578	60.0215
0.00762957	60.1945
0.00767361	60.368
0.00771792	60.542
0.00776247	60.7165
0.00780728	60.8915
0.00785236	61.067
0.00789769	61.243
0.00794328	61.4196
0.00798914	61.5966
0.00803526	61.7741
0.00808165	61.9522
0.00812831	62.1308
0.00817523	62.3098
0.00822243	62.4895
0.0082699	62.6696
0.00831764	62.8502
0.00836566	63.0314
0.00841395	63.213
0.00846253	63.3952
0.00851138	63.578
0.00856052	63.7612
0.00860994	63.945
0.00865964	64.1293
0.00870964	64.3142
0.00875992	64.4996
0.00881049	64.6855
0.00886135	64.8719
0.00891251	65.0589
0.00896396	65.2464
0.00901571	65.4345
0.00906776	65.6231
0.00912011	65.8122
0.00917276	66.0019
0.00922571	66.1922
0.00927897	66.383
0.00933254	66.5743
0.00938642	66.7662
0.00944061	66.9587
0.00949511	67.1517
0.00954993	67.3452
0.00960506	67.5393
0.00966051	67.734
0.00971628	67.9292
0.00977237	68.125
0.00982879	68.3214
0.00988553	68.5183
0.0099426	68.7158
0.01	68.9139
0.0100577	69.1125
0.0101158	69.3117
0.0101742	69.5115
0.0102329	69.7119
0.010292	69.9128
0.0103514	70.1143
0.0104112	70.3164
0.0104713	70.5191
0.0105317	70.7224
0.0105925	70.9262
0.0106537	71.1306
0.0107152	71.3357
0.0107771	71.5413
0.0108393	71.7475
0.0109018	71.9543
0.0109648	72.1617
0.0110281	72.3697
0.0110917	72.5783
0.0111558	72.7875
0.0112202	72.9973
0.011285	73.2077
0.0113501	73.4187
0.0114156	73.6303
0.0114815	73.8426
0.0115478	74.0554
0.0116145	74.2689
0.0116815	74.4829
0.011749	74.6976
0.0118168	74.9129
0.011885	75.1288
0.0119536	75.3454
0.0120226	75.5626
0.0120921	75.7804
0.0121619	75.9988
0.0122321	76.2179
0.0123027	76.4375
0.0123737	76.6579
0.0124451	76.8788
0.012517	77.1004
0.0125893	77.3226
0.0126619	77.5455
0.012735	77.769
0.0128086	77.9932
0.0128825	78.218
0.0129569	78.4435
0.0130317	78.6696
0.0131069	78.8963
0.0131826	79.1237
0.0132587	79.3518
0.0133352	79.5805
0.0134122	79.8099
0.0134896	80.0399
0.0135675	80.2706
0.0136458	80.502
0.0137246	80.734
0.0138038	80.9667
0.0138835	81.2001
0.0139637	81.4342
0.0140443	81.6689
0.0141254	81.9043
0.0142069	82.1404
0.0142889	82.3771
0.0143714	82.6146
0.0144544	82.8527
0.0145378	83.0915
0.0146218	83.331
0.0147062	83.5712
0.0147911	83.8121
0.0148765	84.0537
0.0149624	84.2959
0.0150487	84.5389
0.0151356	84.7826
0.015223	85.027
0.0153109	85.2721
0.0153993	85.5178
0.0154882	85.7643
0.0155776	86.0115
0.0156675	86.2595
0.015758	86.5081
0.0158489	86.7574
0.0159404	87.0075
0.0160325	87.2583
0.016125	87.5098
0.0162181	87.762
0.0163117	88.015
0.0164059	88.2687
0.0165006	88.5231
0.0165959	88.7783
0.0166917	89.0342
0.016788	89.2908
0.016885	89.5482
0.0169824	89.8063
0.0170805	90.0651
0.0171791	90.3247
0.0172783	90.5851
0.017378	90.8462
0.0174783	91.108
0.0175792	91.3706
0.0176807	91.634
0.0177828	91.8981
0.0178855	92.163
0.0179887	92.4287
0.0180926	92.6951
0.018197	92.9623
0.0183021	93.2302
0.0184077	93.4989
0.018514	93.7684
0.0186209	94.0387
0.0187284	94.3098
0.0188365	94.5816
0.0189452	94.8542
0.0190546	95.1276
0.0191646	95.4018
0.0192752	95.6768
0.0193865	95.9526
0.0194984	96.2292
0.019611	96.5065
0.0197242	96.7847
0.0198381	97.0637
0.0199526	97.3434
0.0200678	97.624
0.0201837	97.9054
0.0203002	98.1876
0.0204174	98.4706
0.0205353	98.7545
0.0206538	99.0391
0.020773	99.3246
0.020893	99.6109
0.0210136	99.898
0.0211349	100.186
0.0212569	100.475
0.0213796	100.764
0.021503	101.055
0.0216272	101.346
0.021752	101.638
0.0218776	101.931
0.0220039	102.225
0.0221309	102.52
0.0222587	102.815
0.0223872	103.111
0.0225165	103.409
0.0226464	103.707
0.0227772	104.006
0.0229087	104.305
0.0230409	104.606
0.0231739	104.908
0.0233077	105.21
0.0234423	105.513
0.0235776	105.817
0.0237137	106.122
0.0238506	106.428
0.0239883	106.735
0.0241268	107.043
0.0242661	107.351
0.0244062	107.661
0.0245471	107.971
0.0246888	108.282
0.0248313	108.594
0.0249747	108.907
0.0251189	109.221
0.0252639	109.536
0.0254097	109.852
0.0255564	110.168
0.025704	110.486
0.0258523	110.804
0.0260016	111.124
0.0261517	111.444
0.0263027	111.765
0.0264545	112.087
0.0266073	112.41
0.0267609	112.734
0.0269153	113.059
0.0270707	113.385
0.027227	113.712
0.0273842	114.04
0.0275423	114.369
0.0277013	114.698
0.0278612	115.029
0.0280221	115.36
0.0281838	115.693
0.0283465	116.026
0.0285102	116.361
0.0286748	116.696
0.0288403	117.033
0.0290068	117.37
0.0291743	117.708
0.0293427	118.047
0.0295121	118.388
0.0296825	118.729
0.0298538	119.071
0.0300262	119.414
0.0301995	119.759
0.0303739	120.104
0.0305492	120.45
0.0307256	120.797
0.030903	121.145
0.0310814	121.495
0.0312608	121.845
0.0314413	122.196
0.0316228	122.548
0.0318053	122.901
0.031989	123.256
0.0321736	123.611
0.0323594	123.967
0.0325462	124.324
0.0327341	124.683
0.032923	125.042
0.0331131	125.403
0.0333043	125.764
0.0334965	126.127
0.0336899	126.49
0.0338844	126.855
0.03408	127.22
0.0342768	127.587
0.0344747	127.955
0.0346737	128.324
0.0348739	128.694
0.0350752	129.064
0.0352777	129.436
0.0354813	129.81
0.0356862	130.184
0.0358922	130.559
0.0360994	130.935
0.0363078	131.313
0.0365174	131.691
0.0367282	132.071
0.0369403	132.451
0.0371535	132.833
0.037368	133.216
0.0375837	133.6
0.0378007	133.985
0.0380189	134.371
0.0382384	134.759
0.0384592	135.147
0.0386812	135.537
0.0389045	135.927
0.0391291	136.319
0.039355	136.712
0.0395822	137.106
0.0398107	137.501
0.0400405	137.898
0.0402717	138.295
0.0405042	138.694
0.040738	139.093
0.0409732	139.494
0.0412098	139.896
0.0414477	140.3
0.0416869	140.704
0.0419276	141.11
0.0421697	141.516
0.0424131	141.924
0.042658	142.333
0.0429042	142.744
0.0431519	143.155
0.043401	143.568
0.0436516	143.982
0.0439036	144.397
0.044157	144.813
0.044412	145.23
0.0446684	145.649
0.0449262	146.069
0.0451856	146.49
0.0454465	146.912
0.0457088	147.335
0.0459727	147.76
0.0462381	148.186
0.046505	148.613
0.0467735	149.041
0.0470435	149.471
0.0473151	149.902
0.0475883	150.334
0.047863	150.767
0.0481393	151.202
0.0484172	151.638
0.0486968	152.075
0.0489779	152.513
0.0492606	152.953
0.049545	153.393
0.049831	153.836
0.0501187	154.279
0.0504081	154.724
0.0506991	155.17
0.0509918	155.617
0.0512861	156.065
0.0515822	156.515
0.05188	156.966
0.0521795	157.419
0.0524807	157.873
0.0527837	158.328
0.0530884	158.784
0.0533949	159.242
0.0537032	159.701
0.0540132	160.161
0.054325	160.623
0.0546387	161.086
0.0549541	161.55
0.0552713	162.016
0.0555904	162.483
0.0559114	162.951
0.0562341	163.421
0.0565588	163.892
0.0568853	164.364
0.0572137	164.838
0.057544	165.313
0.0578762	165.789
0.0582103	166.267
0.0585464	166.746
0.0588844	167.227
0.0592243	167.709
0.0595662	168.193
0.0599101	168.677
0.060256	169.164
0.0606038	169.651
0.0609537	170.14
0.0613056	170.631
0.0616595	171.122
0.0620155	171.616
0.0623735	172.11
0.0627336	172.606
0.0630957	173.104
0.06346	173.603
0.0638263	174.103
0.0641948	174.605
0.0645654	175.108
0.0649382	175.613
0.0653131	176.119
0.0656901	176.627
0.0660693	177.136
0.0664508	177.647
0.0668344	178.159
0.0672202	178.672
0.0676083	179.187
0.0679986	179.704
0.0683912	180.222
0.068786	180.741
0.0691831	181.262
0.0695825	181.784
0.0699842	182.308
0.0703882	182.834
0.0707946	183.361
0.0712033	183.889
0.0716143	184.419
0.0720278	184.951
0.0724436	185.484
0.0728618	186.019
0.0732825	186.555
0.0737055	187.093
0.074131	187.632
0.074559	188.173
0.0749894	188.715
0.0754223	189.259
0.0758578	189.805
0.0762957	190.352
0.0767361	190.9
0.0771792	191.451
0.0776247	192.002
0.0780728	192.556
0.0785236	193.111
0.0789769	193.667
0.0794328	194.226
0.0798914	194.786
0.0803526	195.347
0.0808165	195.91
0.0812831	196.475
0.0817523	197.041
0.0822243	197.609
0.082699	198.179
0.0831764	198.75
0.0836566	199.323
0.0841395	199.897
0.0846253	200.473
0.0851138	201.051
0.0856052	201.631
0.0860994	202.212
0.0865964	202.795
0.0870964	203.379
0.0875992	203.965
0.0881049	204.553
0.0886135	205.143
0.0891251	205.734
0.0896396	206.327
0.0901571	206.922
0.0906776	207.518
0.0912011	208.117
0.0917276	208.716
0.0922571	209.318
0.0927897	209.921
0.0933254	210.526
0.0938642	211.133
0.0944061	211.742
0.0949511	212.352
0.0954993	212.964
0.0960506	213.578
0.0966051	214.194
0.0971628	214.811
0.0977237	215.43
0.0982879	216.051
0.0988553	216.674
0.099426	217.298
0.1	217.925
0.100577	218.553
0.101158	219.183
0.101742	219.815
0.102329	220.448
0.10292	221.084
0.103514	221.721
0.104112	222.36
0.104713	223.001
0.105317	223.644
0.105925	224.288
0.106537	224.935
0.107152	225.583
0.107771	226.233
0.108393	226.885
0.109018	227.539
0.109648	228.195
0.110281	228.853
0.110917	229.513
0.111558	230.174
0.112202	230.838
0.11285	231.503
0.113501	232.17
0.114156	232.84
0.114815	233.511
0.115478	234.184
0.116145	234.859
0.116815	235.536
0.11749	236.215
0.118168	236.895
0.11885	237.578
0.119536	238.263
0.120226	238.95
0.120921	239.639
0.121619	240.329
0.122321	241.022
0.123027	241.717
0.123737	242.413
0.124451	243.112
0.12517	243.813
0.125893	244.516
0.126619	245.22
0.12735	245.927
0.128086	246.636
0.128825	247.347
0.129569	248.06
0.130317	248.775
0.131069	249.492
0.131826	250.211
0.132587	250.932
0.133352	251.656
0.134122	252.381
0.134896	253.108
0.135675	253.838
0.136458	254.57
0.137246	255.303
0.138038	256.039
0.138835	256.777
0.139637	257.517
0.140443	258.26
0.141254	259.004
0.142069	259.751
0.142889	260.499
0.143714	261.25
0.144544	262.003
0.145378	262.758
0.146218	263.516
0.147062	264.275
0.147911	265.037
0.148765	265.801
0.149624	266.567
0.150487	267.336
0.151356	268.106
0.15223	268.879
0.153109	269.654
0.153993	270.431
0.154882	271.211
0.155776	271.992
0.156675	272.776
0.15758	273.563
0.158489	274.351
0.159404	275.142
0.160325	275.935
0.16125	276.73
0.162181	277.528
0.163117	278.328
0.164059	279.13
0.165006	279.935
0.165959	280.742
0.166917	281.551
0.16788	282.362
0.16885	283.176
0.169824	283.992
0.170805	284.811
0.171791	285.632
0.172783	286.455
0.17378	287.281
0.174783	288.109
0.175792	288.939
0.176807	289.772
0.177828	290.607
0.178855	291.445
0.179887	292.285
0.180926	293.128
0.18197	293.972
0.183021	294.82
0.184077	295.67
0.18514	296.522
0.186209	297.377
0.187284	298.234
0.188365	299.093
0.189452	299.955
0.190546	300.82
0.191646	301.687
0.192752	302.557
0.193865	303.429
0.194984	304.303
0.19611	305.18
0.197242	306.06
0.198381	306.942
0.199526	307.827
0.200678	308.714
0.201837	309.604
0.203002	310.496
0.204174	311.391
0.205353	312.289
0.206538	313.189
0.20773	314.092
0.20893	314.997
0.210136	315.905
0.211349	316.816
0.212569	317.729
0.213796	318.645
0.21503	319.563
0.216272	320.484
0.21752	321.408
0.218776	322.334
0.220039	323.264
0.221309	324.195
0.222587	325.13
0.223872	326.067
0.225165	327.007
0.226464	327.949
0.227772	328.895
0.229087	329.843
0.230409	330.793
0.231739	331.747
0.233077	332.703
0.234423	333.662
0.235776	334.624
0.237137	335.588
0.238506	336.556
0.239883	337.526
0.241268	338.498
0.242661	339.474
0.244062	340.453
0.245471	341.434
0.246888	342.418
0.248313	343.405
0.249747	344.395
0.251189	345.388
0.252639	346.383
0.254097	347.382
0.255564	348.383
0.25704	349.387
0.258523	350.394
0.260016	351.404
0.261517	352.417
0.263027	353.433
0.264545	354.451
0.266073	355.473
0.267609	356.498
0.269153	357.525
0.270707	358.556
0.27227	359.589
0.273842	360.626
0.275423	361.665
0.277013	362.708
0.278612	363.753
0.280221	364.802
0.281838	365.853
0.283465	366.908
0.285102	367.965
0.286748	369.026
0.288403	370.089
0.290068	371.156
0.291743	372.226
0.293427	373.299
0.295121	374.375
0.296825	375.454
0.298538	376.536
0.300262	377.621
0.301995	378.71
0.303739	379.802
0.305492	380.896
0.307256	381.994
0.30903	383.095
0.310814	384.199
0.312608	385.307
0.314413	386.417
0.316228	387.531
0.318053	388.648
0.31989	389.768
0.321736	390.892
0.323594	392.019
0.325462	393.149
0.327341	394.282
0.32923	395.418
0.331131	396.558
0.333043	397.701
0.334965	398.847
0.336899	399.997
0.338844	401.15
0.3408	402.306
0.342768	403.466
0.344747	404.629
0.346737	405.795
0.348739	406.965
0.350752	408.138
0.352777	409.314
0.354813	410.494
0.356862	411.677
0.358922	412.864
0.360994	414.054
0.363078	415.247
0.365174	416.444
0.367282	417.644
0.369403	418.848
0.371535	420.056
0.37368	421.266
0.375837	422.481
0.378007	423.698
0.380189	424.92
0.382384	426.144
0.384592	427.373
0.386812	428.604
0.389045	429.84
0.391291	431.079
0.39355	432.321
0.395822	433.567
0.398107	434.817
0.400405	436.07
0.402717	437.327
0.405042	438.588
0.40738	439.852
0.409732	441.12
0.412098	442.391
0.414477	443.667
0.416869	444.945
0.419276	446.228
0.421697	447.514
0.424131	448.804
0.42658	450.098
0.429042	451.395
0.431519	452.696
0.43401	454.001
0.436516	455.309
0.439036	456.622
0.44157	457.938
0.44412	459.258
0.446684	460.582
0.449262	461.909
0.451856	463.241
0.454465	464.576
0.457088	465.915
0.459727	467.258
0.462381	468.605
0.46505	469.955
0.467735	471.31
0.470435	472.669
0.473151	474.031
0.475883	475.397
0.47863	476.768
0.481393	478.142
0.484172	479.52
0.486968	480.902
0.489779	482.288
0.492606	483.678
0.49545	485.073
0.49831	486.471
0.501187	487.873
0.504081	489.279
0.506991	490.689
0.509918	492.104
0.512861	493.522
0.515822	494.945
0.5188	496.371
0.521795	497.802
0.524807	499.237
0.527837	500.676
0.530884	502.119
0.533949	503.566
0.537032	505.018
0.540132	506.473
0.54325	507.933
0.546387	509.397
0.549541	510.866
0.552713	512.338
0.555904	513.815
0.559114	515.296
0.562341	516.781
0.565588	518.271
0.568853	519.765
0.572137	521.263
0.57544	522.765
0.578762	524.272
0.582103	525.783
0.585464	527.299
0.588844	528.819
0.592243	530.343
0.595662	531.871
0.599101	533.405
0.60256	534.942
0.606038	536.484
0.609537	538.03
