Stopping power dEdx from Ionisation for He3 Z = 2 in Water, process name: ionIoni
E [MeV]	dEdx [MeV/mm]
0.001	13.5966
0.00100577	13.6367
0.00101158	13.6769
0.00101742	13.7172
0.00102329	13.7577
0.0010292	13.7983
0.00103514	13.839
0.00104112	13.8798
0.00104713	13.9207
0.00105317	13.9618
0.00105925	14.003
0.00106537	14.0443
0.00107152	14.0857
0.00107771	14.1273
0.00108393	14.1689
0.00109018	14.2108
0.00109648	14.2527
0.00110281	14.2947
0.00110917	14.3369
0.00111558	14.3792
0.00112202	14.4217
0.0011285	14.4642
0.00113501	14.5069
0.00114156	14.5498
0.00114815	14.5927
0.00115478	14.6358
0.00116145	14.679
0.00116815	14.7224
0.0011749	14.7658
0.00118168	14.8094
0.0011885	14.8532
0.00119536	14.897
0.00120226	14.941
0.00120921	14.9852
0.00121619	15.0294
0.00122321	15.0738
0.00123027	15.1183
0.00123737	15.163
0.00124451	15.2078
0.0012517	15.2527
0.00125893	15.2978
0.00126619	15.343
0.0012735	15.3883
0.00128086	15.4338
0.00128825	15.4794
0.00129569	15.5252
0.00130317	15.5711
0.00131069	15.6171
0.00131826	15.6632
0.00132587	15.7095
0.00133352	15.756
0.00134122	15.8026
0.00134896	15.8493
0.00135675	15.8962
0.00136458	15.9432
0.00137246	15.9903
0.00138038	16.0376
0.00138835	16.085
0.00139637	16.1326
0.00140443	16.1803
0.00141254	16.2282
0.00142069	16.2762
0.00142889	16.3243
0.00143714	16.3726
0.00144544	16.4211
0.00145378	16.4696
0.00146218	16.5184
0.00147062	16.5673
0.00147911	16.6163
0.00148765	16.6654
0.00149624	16.7148
0.00150487	16.7642
0.00151356	16.8139
0.0015223	16.8636
0.00153109	16.9136
0.00153993	16.9636
0.00154882	17.0138
0.00155776	17.0642
0.00156675	17.1147
0.0015758	17.1654
0.00158489	17.2162
0.00159404	17.2672
0.00160325	17.3184
0.0016125	17.3697
0.00162181	17.4211
0.00163117	17.4727
0.00164059	17.5245
0.00165006	17.5764
0.00165959	17.6284
0.00166917	17.6807
0.0016788	17.7331
0.0016885	17.7856
0.00169824	17.8383
0.00170805	17.8912
0.00171791	17.9442
0.00172783	17.9974
0.0017378	18.0507
0.00174783	18.1042
0.00175792	18.1579
0.00176807	18.2117
0.00177828	18.2657
0.00178855	18.3198
0.00179887	18.3741
0.00180926	18.4286
0.0018197	18.4833
0.00183021	18.5381
0.00184077	18.593
0.0018514	18.6482
0.00186209	18.7035
0.00187284	18.759
0.00188365	18.8146
0.00189452	18.8704
0.00190546	18.9264
0.00191646	18.9825
0.00192752	19.0389
0.00193865	19.0953
0.00194984	19.152
0.0019611	19.2088
0.00197242	19.2658
0.00198381	19.323
0.00199526	19.3803
0.00200678	19.4379
0.00201837	19.4956
0.00203002	19.5534
0.00204174	19.6115
0.00205353	19.6697
0.00206538	19.7281
0.0020773	19.7867
0.0020893	19.8454
0.00210136	19.9043
0.00211349	19.9634
0.00212569	20.0227
0.00213796	20.0822
0.0021503	20.1418
0.00216272	20.2016
0.0021752	20.2617
0.00218776	20.3218
0.00220039	20.3822
0.00221309	20.4428
0.00222587	20.5035
0.00223872	20.5644
0.00225165	20.6255
0.00226464	20.6868
0.00227772	20.7483
0.00229087	20.8099
0.00230409	20.8718
0.00231739	20.9338
0.00233077	20.996
0.00234423	21.0584
0.00235776	21.121
0.00237137	21.1838
0.00238506	21.2468
0.00239883	21.31
0.00241268	21.3733
0.00242661	21.4369
0.00244062	21.5006
0.00245471	21.5646
0.00246888	21.6287
0.00248313	21.693
0.00249747	21.7576
0.00251189	21.8223
0.00252639	21.8872
0.00254097	21.9523
0.00255564	22.0176
0.0025704	22.0831
0.00258523	22.1488
0.00260016	22.2147
0.00261517	22.2808
0.00263027	22.3471
0.00264545	22.4136
0.00266073	22.4803
0.00267609	22.5473
0.00269153	22.6144
0.00270707	22.6817
0.0027227	22.7492
0.00273842	22.8169
0.00275423	22.8849
0.00277013	22.953
0.00278612	23.0213
0.00280221	23.0899
0.00281838	23.1586
0.00283465	23.2276
0.00285102	23.2968
0.00286748	23.3662
0.00288403	23.4358
0.00290068	23.5056
0.00291743	23.5756
0.00293427	23.6458
0.00295121	23.7163
0.00296825	23.7869
0.00298538	23.8578
0.00300262	23.9289
0.00301995	23.985
0.00303739	24.0354
0.00305492	24.1072
0.00307256	24.1793
0.0030903	24.2516
0.00310814	24.3241
0.00312608	24.3968
0.00314413	24.4697
0.00316228	24.5428
0.00318053	24.6162
0.0031989	24.6898
0.00321736	24.7636
0.00323594	24.8376
0.00325462	24.9119
0.00327341	24.9864
0.0032923	25.0611
0.00331131	25.136
0.00333043	25.2112
0.00334965	25.2866
0.00336899	25.3622
0.00338844	25.438
0.003408	25.5141
0.00342768	25.5904
0.00344747	25.6669
0.00346737	25.7437
0.00348739	25.8207
0.00350752	25.8979
0.00352777	25.9754
0.00354813	26.053
0.00356862	26.131
0.00358922	26.2091
0.00360994	26.2875
0.00363078	26.3662
0.00365174	26.4451
0.00367282	26.5242
0.00369403	26.6035
0.00371535	26.6831
0.0037368	26.763
0.00375837	26.843
0.00378007	26.9234
0.00380189	27.0039
0.00382384	27.0847
0.00384592	27.1658
0.00386812	27.2471
0.00389045	27.3286
0.00391291	27.4104
0.0039355	27.4925
0.00395822	27.5747
0.00398107	27.6573
0.00400405	27.7401
0.00402717	27.8231
0.00405042	27.9064
0.0040738	27.99
0.00409732	28.0738
0.00412098	28.1578
0.00414477	28.2421
0.00416869	28.3267
0.00419276	28.4115
0.00421697	28.4966
0.00424131	28.5819
0.0042658	28.6675
0.00429042	28.7534
0.00431519	28.8395
0.0043401	28.9259
0.00436516	29.0125
0.00439036	29.0994
0.0044157	29.1866
0.0044412	29.2741
0.00446684	29.3618
0.00449262	29.4497
0.00451856	29.538
0.00454465	29.6265
0.00457088	29.7153
0.00459727	29.8043
0.00462381	29.8936
0.0046505	29.9832
0.00467735	30.0731
0.00470435	30.1632
0.00473151	30.2536
0.00475883	30.3443
0.0047863	30.4353
0.00481393	30.5265
0.00484172	30.618
0.00486968	30.7098
0.00489779	30.8019
0.00492606	30.8943
0.0049545	30.9869
0.0049831	31.0798
0.00501187	31.173
0.00504081	31.2665
0.00506991	31.3603
0.00509918	31.4543
0.00512861	31.5487
0.00515822	31.6433
0.005188	31.7382
0.00521795	31.8335
0.00524807	31.929
0.00527837	32.0248
0.00530884	32.1208
0.00533949	32.2172
0.00537032	32.3139
0.00540132	32.4109
0.0054325	32.5081
0.00546387	32.6057
0.00549541	32.7036
0.00552713	32.8017
0.00555904	32.9002
0.00559114	32.9989
0.00562341	33.098
0.00565588	33.1974
0.00568853	33.297
0.00572137	33.397
0.0057544	33.4973
0.00578762	33.5979
0.00582103	33.6987
0.00585464	33.7999
0.00588844	33.9015
0.00592243	34.0033
0.00595662	34.1054
0.00599101	34.2078
0.0060256	34.3106
0.00606038	34.4137
0.00609537	34.5171
0.00613056	34.6208
0.00616595	34.7248
0.00620155	34.8291
0.00623735	34.9338
0.00627336	35.0387
0.00630957	35.144
0.006346	35.2496
0.00638263	35.3556
0.00641948	35.4618
0.00645654	35.5684
0.00649382	35.6753
0.00653131	35.7826
0.00656901	35.8902
0.00660693	35.9981
0.00664508	36.1063
0.00668344	36.2148
0.00672202	36.3237
0.00676083	36.433
0.00679986	36.5425
0.00683912	36.6524
0.0068786	36.7627
0.00691831	36.8732
0.00695825	36.9841
0.00699842	37.0954
0.00703882	37.207
0.00707946	37.3189
0.00712033	37.4312
0.00716143	37.5438
0.00720278	37.6567
0.00724436	37.77
0.00728618	37.8837
0.00732825	37.9977
0.00737055	38.112
0.0074131	38.2267
0.0074559	38.3418
0.00749894	38.4572
0.00754223	38.573
0.00758578	38.6891
0.00762957	38.8055
0.00767361	38.9224
0.00771792	39.0395
0.00776247	39.1571
0.00780728	39.275
0.00785236	39.3932
0.00789769	39.5119
0.00794328	39.6308
0.00798914	39.7502
0.00803526	39.8699
0.00808165	39.99
0.00812831	40.1104
0.00817523	40.2313
0.00822243	40.3525
0.0082699	40.474
0.00831764	40.596
0.00836566	40.7183
0.00841395	40.8409
0.00846253	40.964
0.00851138	41.0874
0.00856052	41.2112
0.00860994	41.3354
0.00865964	41.46
0.00870964	41.585
0.00875992	41.7103
0.00881049	41.836
0.00886135	41.9621
0.00891251	42.0886
0.00896396	42.2155
0.00901571	42.3428
0.00906776	42.4705
0.00912011	42.5985
0.00917276	42.7269
0.00922571	42.8558
0.00927897	42.985
0.00933254	43.1146
0.00938642	43.2447
0.00944061	43.3751
0.00949511	43.5059
0.00954993	43.6372
0.00960506	43.7688
0.00966051	43.9008
0.00971628	44.0333
0.00977237	44.1661
0.00982879	44.2993
0.00988553	44.433
0.0099426	44.5671
0.01	44.7016
0.0100577	44.8364
0.0101158	44.9718
0.0101742	45.1075
0.0102329	45.2436
0.010292	45.3802
0.0103514	45.5171
0.0104112	45.6545
0.0104713	45.7923
0.0105317	45.9306
0.0105925	46.0692
0.0106537	46.2083
0.0107152	46.3478
0.0107771	46.4878
0.0108393	46.6281
0.0109018	46.7689
0.0109648	46.9102
0.0110281	47.0518
0.0110917	47.1939
0.0111558	47.3365
0.0112202	47.4794
0.011285	47.6228
0.0113501	47.7667
0.0114156	47.911
0.0114815	48.0557
0.0115478	48.2009
0.0116145	48.3465
0.0116815	48.4926
0.011749	48.6391
0.0118168	48.7861
0.011885	48.9335
0.0119536	49.0813
0.0120226	49.2297
0.0120921	49.3784
0.0121619	49.5277
0.0122321	49.6773
0.0123027	49.8275
0.0123737	49.9781
0.0124451	50.1292
0.012517	50.2807
0.0125893	50.4327
0.0126619	50.5852
0.012735	50.7381
0.0128086	50.8915
0.0128825	51.0454
0.0129569	51.1997
0.0130317	51.3545
0.0131069	51.5098
0.0131826	51.6656
0.0132587	51.8218
0.0133352	51.9785
0.0134122	52.1357
0.0134896	52.2934
0.0135675	52.4516
0.0136458	52.6102
0.0137246	52.7693
0.0138038	52.929
0.0138835	53.0891
0.0139637	53.2497
0.0140443	53.4108
0.0141254	53.5724
0.0142069	53.7344
0.0142889	53.897
0.0143714	54.0601
0.0144544	54.2237
0.0145378	54.3878
0.0146218	54.5523
0.0147062	54.7174
0.0147911	54.883
0.0148765	55.0491
0.0149624	55.2157
0.0150487	55.3828
0.0151356	55.5504
0.015223	55.7186
0.0153109	55.8872
0.0153993	56.0564
0.0154882	56.2261
0.0155776	56.3963
0.0156675	56.567
0.015758	56.7383
0.0158489	56.9101
0.0159404	57.0824
0.0160325	57.2552
0.016125	57.4285
0.0162181	57.6024
0.0163117	57.7769
0.0164059	57.9518
0.0165006	58.1273
0.0165959	58.3033
0.0166917	58.4799
0.016788	58.657
0.016885	58.8346
0.0169824	59.0128
0.0170805	59.1916
0.0171791	59.3708
0.0172783	59.5507
0.017378	59.731
0.0174783	59.912
0.0175792	60.0934
0.0176807	60.2755
0.0177828	60.4581
0.0178855	60.6412
0.0179887	60.8249
0.0180926	61.0092
0.018197	61.194
0.0183021	61.3794
0.0184077	61.5654
0.018514	61.7519
0.0186209	61.939
0.0187284	62.1267
0.0188365	62.3149
0.0189452	62.5038
0.0190546	62.6932
0.0191646	62.8831
0.0192752	63.0737
0.0193865	63.2648
0.0194984	63.4565
0.019611	63.6488
0.0197242	63.8417
0.0198381	64.0352
0.0199526	64.2293
0.0200678	64.4239
0.0201837	64.6192
0.0203002	64.815
0.0204174	65.0115
0.0205353	65.2085
0.0206538	65.4061
0.020773	65.6044
0.020893	65.8032
0.0210136	66.0027
0.0211349	66.2027
0.0212569	66.4034
0.0213796	66.6047
0.021503	66.8066
0.0216272	67.0091
0.021752	67.2122
0.0218776	67.416
0.0220039	67.6203
0.0221309	67.8253
0.0222587	68.0309
0.0223872	68.2371
0.0225165	68.444
0.0226464	68.6515
0.0227772	68.8596
0.0229087	69.0683
0.0230409	69.2777
0.0231739	69.4877
0.0233077	69.6984
0.0234423	69.9097
0.0235776	70.1216
0.0237137	70.3342
0.0238506	70.5474
0.0239883	70.7613
0.0241268	70.9758
0.0242661	71.191
0.0244062	71.4068
0.0245471	71.6233
0.0246888	71.8404
0.0248313	72.0582
0.0249747	72.2766
0.0251189	72.4957
0.0252639	72.7155
0.0254097	72.9359
0.0255564	73.157
0.025704	73.3788
0.0258523	73.6013
0.0260016	73.8244
0.0261517	74.0482
0.0263027	74.2726
0.0264545	74.4978
0.0266073	74.7236
0.0267609	74.9501
0.0269153	75.1773
0.0270707	75.4052
0.027227	75.6337
0.0273842	75.863
0.0275423	76.0929
0.0277013	76.3235
0.0278612	76.5549
0.0280221	76.7869
0.0281838	77.0196
0.0283465	77.253
0.0285102	77.4872
0.0286748	77.722
0.0288403	77.9575
0.0290068	78.1938
0.0291743	78.4308
0.0293427	78.6684
0.0295121	78.9068
0.0296825	79.1459
0.0298538	79.3857
0.0300262	79.6263
0.0301995	79.8675
0.0303739	80.1095
0.0305492	80.3522
0.0307256	80.5956
0.030903	80.8398
0.0310814	81.0847
0.0312608	81.3303
0.0314413	81.5767
0.0316228	81.8238
0.0318053	82.0716
0.031989	82.3202
0.0321736	82.5695
0.0323594	82.8196
0.0325462	83.0704
0.0327341	83.3219
0.032923	83.5742
0.0331131	83.8273
0.0333043	84.0811
0.0334965	84.3357
0.0336899	84.591
0.0338844	84.8471
0.03408	85.1039
0.0342768	85.3615
0.0344747	85.6199
0.0346737	85.8791
0.0348739	86.139
0.0350752	86.3997
0.0352777	86.6611
0.0354813	86.9234
0.0356862	87.1864
0.0358922	87.4502
0.0360994	87.7147
0.0363078	87.9801
0.0365174	88.2462
0.0367282	88.5131
0.0369403	88.7808
0.0371535	89.0493
0.037368	89.3186
0.0375837	89.5887
0.0378007	89.8596
0.0380189	90.1313
0.0382384	90.4038
0.0384592	90.677
0.0386812	90.9511
0.0389045	91.226
0.0391291	91.5017
0.039355	91.7782
0.0395822	92.0555
0.0398107	92.3337
0.0400405	92.6126
0.0402717	92.8924
0.0405042	93.1729
0.040738	93.4543
0.0409732	93.7366
0.0412098	94.0196
0.0414477	94.3035
0.0416869	94.5882
0.0419276	94.8737
0.0421697	95.16
0.0424131	95.4472
0.042658	95.7352
0.0429042	96.0241
0.0431519	96.3138
0.043401	96.6043
0.0436516	96.8957
0.0439036	97.1879
0.044157	97.481
0.044412	97.7749
0.0446684	98.0697
0.0449262	98.3653
0.0451856	98.6617
0.0454465	98.959
0.0457088	99.2572
0.0459727	99.5562
0.0462381	99.8561
0.046505	100.157
0.0467735	100.458
0.0470435	100.761
0.0473151	101.064
0.0475883	101.369
0.047863	101.674
0.0481393	101.98
0.0484172	102.286
0.0486968	102.594
0.0489779	102.903
0.0492606	103.212
0.049545	103.522
0.049831	103.834
0.0501187	104.146
0.0504081	104.459
0.0506991	104.772
0.0509918	105.087
0.0512861	105.403
0.0515822	105.719
0.05188	106.037
0.0521795	106.355
0.0524807	106.674
0.0527837	106.994
0.0530884	107.315
0.0533949	107.637
0.0537032	107.96
0.0540132	108.284
0.054325	108.608
0.0546387	108.934
0.0549541	109.26
0.0552713	109.587
0.0555904	109.916
0.0559114	110.245
0.0562341	110.575
0.0565588	110.906
0.0568853	111.238
0.0572137	111.57
0.057544	111.904
0.0578762	112.239
0.0582103	112.574
0.0585464	112.911
0.0588844	113.248
0.0592243	113.586
0.0595662	113.925
0.0599101	114.265
0.060256	114.606
0.0606038	114.948
0.0609537	115.291
0.0613056	115.635
0.0616595	115.98
0.0620155	116.326
0.0623735	116.672
0.0627336	117.02
0.0630957	117.368
0.06346	117.718
0.0638263	118.068
0.0641948	118.419
0.0645654	118.771
0.0649382	119.124
0.0653131	119.478
0.0656901	119.833
0.0660693	120.189
0.0664508	120.546
0.0668344	120.904
0.0672202	121.263
0.0676083	121.623
0.0679986	121.983
0.0683912	122.345
0.068786	122.707
0.0691831	123.071
0.0695825	123.435
0.0699842	123.8
0.0703882	124.167
0.0707946	124.534
0.0712033	124.902
0.0716143	125.271
0.0720278	125.641
0.0724436	126.012
0.0728618	126.384
0.0732825	126.757
0.0737055	127.131
0.074131	127.506
0.074559	127.881
0.0749894	128.258
0.0754223	128.636
0.0758578	129.014
0.0762957	129.394
0.0767361	129.774
0.0771792	130.155
0.0776247	130.538
0.0780728	130.921
0.0785236	131.305
0.0789769	131.69
0.0794328	132.076
0.0798914	132.463
0.0803526	132.851
0.0808165	133.24
0.0812831	133.63
0.0817523	134.021
0.0822243	134.412
0.082699	134.805
0.0831764	135.199
0.0836566	135.593
0.0841395	135.989
0.0846253	136.385
0.0851138	136.782
0.0856052	137.18
0.0860994	137.579
0.0865964	137.98
0.0870964	138.381
0.0875992	138.782
0.0881049	139.185
0.0886135	139.589
0.0891251	139.994
0.0896396	140.399
0.0901571	140.806
0.0906776	141.213
0.0912011	141.621
0.0917276	142.031
0.0922571	142.441
0.0927897	142.852
0.0933254	143.264
0.0938642	143.676
0.0944061	144.09
0.0949511	144.505
0.0954993	144.92
0.0960506	145.337
0.0966051	145.754
0.0971628	146.172
0.0977237	146.591
0.0982879	147.011
0.0988553	147.432
0.099426	147.854
0.1	148.276
0.100577	148.7
0.101158	149.124
0.101742	149.549
0.102329	149.975
0.10292	150.402
0.103514	150.829
0.104112	151.258
0.104713	151.687
0.105317	152.118
0.105925	152.549
0.106537	152.981
0.107152	153.413
0.107771	153.847
0.108393	154.281
0.109018	154.716
0.109648	155.152
0.110281	155.589
0.110917	156.027
0.111558	156.465
0.112202	156.904
0.11285	157.344
0.113501	157.785
0.114156	158.226
0.114815	158.668
0.115478	159.111
0.116145	159.555
0.116815	160
0.11749	160.445
0.118168	160.891
0.11885	161.338
0.119536	161.785
0.120226	162.233
0.120921	162.682
0.121619	163.132
0.122321	163.582
0.123027	164.033
0.123737	164.485
0.124451	164.937
0.12517	165.39
0.125893	165.844
0.126619	166.298
0.12735	166.753
0.128086	167.209
0.128825	167.665
0.129569	168.122
0.130317	168.58
0.131069	169.038
0.131826	169.497
0.132587	169.956
0.133352	170.416
0.134122	170.877
0.134896	171.338
0.135675	171.799
0.136458	172.262
0.137246	172.724
0.138038	173.188
0.138835	173.651
0.139637	174.116
0.140443	174.58
0.141254	175.046
0.142069	175.511
0.142889	175.978
0.143714	176.444
0.144544	176.912
0.145378	177.379
0.146218	177.847
0.147062	178.316
0.147911	178.784
0.148765	179.254
0.149624	179.723
0.150487	180.193
0.151356	180.664
0.15223	181.134
0.153109	181.605
0.153993	182.076
0.154882	182.548
0.155776	183.02
0.156675	183.492
0.15758	183.965
0.158489	184.437
0.159404	184.91
0.160325	185.384
0.16125	185.857
0.162181	186.33
0.163117	186.804
0.164059	187.278
0.165006	187.752
0.165959	188.226
0.166917	188.701
0.16788	189.175
0.16885	189.65
0.169824	190.124
0.170805	190.599
0.171791	191.074
0.172783	191.548
0.17378	192.023
0.174783	192.498
0.175792	192.973
0.176807	193.447
0.177828	193.922
0.178855	194.396
0.179887	194.871
0.180926	195.345
0.18197	195.819
0.183021	196.293
0.184077	196.767
0.18514	197.241
0.186209	197.714
0.187284	198.187
0.188365	198.66
0.189452	199.133
0.190546	199.605
0.191646	200.078
0.192752	200.549
0.193865	201.021
0.194984	201.492
0.19611	201.962
0.197242	202.433
0.198381	202.902
0.199526	203.372
0.200678	203.841
0.201837	204.309
0.203002	204.777
0.204174	205.244
0.205353	205.711
0.206538	206.177
0.20773	206.642
0.20893	207.107
0.210136	207.571
0.211349	208.035
0.212569	208.497
0.213796	208.959
0.21503	209.421
0.216272	209.881
0.21752	210.341
0.218776	210.8
0.220039	211.258
0.221309	211.715
0.222587	212.171
0.223872	212.626
0.225165	213.08
0.226464	213.533
0.227772	213.985
0.229087	214.436
0.230409	214.886
0.231739	215.335
0.233077	215.783
0.234423	216.23
0.235776	216.675
0.237137	217.119
0.238506	217.562
0.239883	218.004
0.241268	218.444
0.242661	218.883
0.244062	219.321
0.245471	219.757
0.246888	220.192
0.248313	220.625
0.249747	221.057
0.251189	221.487
0.252639	221.916
0.254097	222.343
0.255564	222.768
0.25704	223.192
0.258523	223.614
0.260016	224.035
0.261517	224.454
0.263027	224.871
0.264545	225.286
0.266073	225.699
0.267609	226.11
0.269153	226.52
0.270707	226.927
0.27227	227.333
0.273842	227.736
0.275423	228.138
0.277013	228.537
0.278612	228.935
0.280221	229.33
0.281838	229.723
0.283465	230.113
0.285102	230.502
0.286748	230.888
0.288403	231.272
0.290068	231.654
0.291743	232.033
0.293427	232.409
0.295121	232.784
0.296825	233.155
0.298538	233.525
0.300262	233.891
0.301995	234.255
0.303739	234.617
0.305492	234.975
0.307256	235.331
0.30903	235.684
0.310814	236.035
0.312608	236.382
0.314413	236.727
0.316228	237.069
0.318053	237.408
0.31989	237.744
0.321736	238.077
0.323594	238.407
0.325462	238.734
0.327341	239.057
0.32923	239.378
0.331131	239.695
0.333043	240.009
0.334965	240.32
0.336899	240.628
0.338844	240.932
0.3408	241.233
0.342768	241.53
0.344747	241.824
0.346737	242.115
0.348739	242.402
0.350752	242.685
0.352777	242.965
0.354813	243.241
0.356862	243.514
0.358922	243.783
0.360994	244.048
0.363078	244.309
0.365174	244.567
0.367282	244.82
0.369403	245.07
0.371535	245.316
0.37368	245.558
0.375837	245.796
0.378007	246.03
0.380189	246.26
0.382384	246.485
0.384592	246.707
0.386812	246.925
0.389045	247.138
0.391291	247.347
0.39355	247.552
0.395822	247.752
0.398107	247.948
0.400405	248.14
0.402717	248.328
0.405042	248.511
0.40738	248.689
0.409732	248.863
0.412098	249.033
0.414477	249.198
0.416869	249.358
0.419276	249.514
0.421697	249.665
0.424131	249.812
0.42658	249.954
0.429042	250.091
0.431519	250.223
0.43401	250.35
0.436516	250.473
0.439036	250.591
0.44157	250.704
0.44412	250.812
0.446684	250.915
0.449262	251.013
0.451856	251.106
0.454465	251.195
0.457088	251.278
0.459727	251.356
0.462381	251.429
0.46505	251.497
0.467735	251.56
0.470435	251.617
0.473151	251.67
0.475883	251.717
0.47863	251.759
0.481393	251.796
0.484172	251.828
0.486968	251.854
0.489779	251.875
0.492606	251.891
0.49545	251.901
0.49831	251.906
0.501187	251.906
0.504081	251.9
0.506991	251.889
0.509918	251.872
0.512861	251.85
0.515822	251.823
0.5188	251.79
0.521795	251.752
0.524807	251.708
0.527837	251.659
0.530884	251.604
0.533949	251.544
0.537032	251.478
0.540132	251.406
0.54325	251.329
0.546387	251.247
0.549541	251.159
0.552713	251.065
0.555904	250.966
0.559114	250.861
0.562341	250.751
0.565588	250.635
0.568853	250.514
0.572137	250.386
0.57544	250.254
0.578762	250.115
0.582103	249.971
0.585464	249.822
0.588844	249.667
0.592243	249.506
0.595662	249.34
0.599101	249.168
0.60256	248.99
0.606038	248.807
0.609537	248.619
0.613056	248.425
