Stopping power dEdx from Ionisation for K39[0.0] Z = 19 in G4_TISSUE_SOFT_ICRP, process name: ionIoni
E [MeV]	dEdx [MeV/mm]
0.001	64.0367
0.00100577	64.2213
0.00101158	64.4064
0.00101742	64.592
0.00102329	64.7782
0.0010292	64.9649
0.00103514	65.1522
0.00104112	65.34
0.00104713	65.5283
0.00105317	65.7172
0.00105925	65.9066
0.00106537	66.0966
0.00107152	66.2871
0.00107771	66.4782
0.00108393	66.6698
0.00109018	66.8619
0.00109648	67.0547
0.00110281	67.2479
0.00110917	67.4418
0.00111558	67.6362
0.00112202	67.8311
0.0011285	68.0266
0.00113501	68.2227
0.00114156	68.4194
0.00114815	68.6166
0.00115478	68.8143
0.00116145	69.0127
0.00116815	69.2116
0.0011749	69.4111
0.00118168	69.6112
0.0011885	69.8118
0.00119536	70.0131
0.00120226	70.2149
0.00120921	70.4172
0.00121619	70.6202
0.00122321	70.8238
0.00123027	71.0279
0.00123737	71.2326
0.00124451	71.438
0.0012517	71.6439
0.00125893	71.8504
0.00126619	72.0575
0.0012735	72.2652
0.00128086	72.4735
0.00128825	72.6824
0.00129569	72.8919
0.00130317	73.102
0.00131069	73.3127
0.00131826	73.524
0.00132587	73.7359
0.00133352	73.9484
0.00134122	74.1616
0.00134896	74.3753
0.00135675	74.5897
0.00136458	74.8047
0.00137246	75.0203
0.00138038	75.2366
0.00138835	75.4534
0.00139637	75.6709
0.00140443	75.889
0.00141254	76.1078
0.00142069	76.3271
0.00142889	76.5471
0.00143714	76.7678
0.00144544	76.9891
0.00145378	77.211
0.00146218	77.4335
0.00147062	77.6567
0.00147911	77.8805
0.00148765	78.105
0.00149624	78.3302
0.00150487	78.5559
0.00151356	78.7824
0.0015223	79.0094
0.00153109	79.2372
0.00153993	79.4656
0.00154882	79.6946
0.00155776	79.9243
0.00156675	80.1547
0.0015758	80.3857
0.00158489	80.6174
0.00159404	80.8498
0.00160325	81.0828
0.0016125	81.3166
0.00162181	81.5509
0.00163117	81.786
0.00164059	82.0217
0.00165006	82.2582
0.00165959	82.4953
0.00166917	82.733
0.0016788	82.9715
0.0016885	83.2107
0.00169824	83.4505
0.00170805	83.691
0.00171791	83.9323
0.00172783	84.1742
0.0017378	84.4168
0.00174783	84.6601
0.00175792	84.9042
0.00176807	85.1489
0.00177828	85.3943
0.00178855	85.6405
0.00179887	85.8873
0.00180926	86.1349
0.0018197	86.3831
0.00183021	86.6321
0.00184077	86.8818
0.0018514	87.1323
0.00186209	87.3834
0.00187284	87.6353
0.00188365	87.8879
0.00189452	88.1412
0.00190546	88.3953
0.00191646	88.6501
0.00192752	88.9056
0.00193865	89.1618
0.00194984	89.4188
0.0019611	89.6766
0.00197242	89.9351
0.00198381	90.1943
0.00199526	90.4543
0.00200678	90.715
0.00201837	90.9765
0.00203002	91.2387
0.00204174	91.5017
0.00205353	91.7654
0.00206538	92.0299
0.0020773	92.2952
0.0020893	92.5612
0.00210136	92.828
0.00211349	93.0956
0.00212569	93.3639
0.00213796	93.633
0.0021503	93.9029
0.00216272	94.1736
0.0021752	94.445
0.00218776	94.7172
0.00220039	94.9902
0.00221309	95.264
0.00222587	95.5386
0.00223872	95.814
0.00225165	96.0902
0.00226464	96.3671
0.00227772	96.6449
0.00229087	96.9235
0.00230409	97.2029
0.00231739	97.483
0.00233077	97.764
0.00234423	98.0458
0.00235776	98.3284
0.00237137	98.6118
0.00238506	98.8961
0.00239883	99.1811
0.00241268	99.467
0.00242661	99.7537
0.00244062	100.041
0.00245471	100.33
0.00246888	100.619
0.00248313	100.909
0.00249747	101.2
0.00251189	101.491
0.00252639	101.784
0.00254097	102.077
0.00255564	102.371
0.0025704	102.667
0.00258523	102.962
0.00260016	103.259
0.00261517	103.557
0.00263027	103.855
0.00264545	104.155
0.00266073	104.455
0.00267609	104.756
0.00269153	105.058
0.00270707	105.361
0.0027227	105.664
0.00273842	105.969
0.00275423	106.274
0.00277013	106.581
0.00278612	106.888
0.00280221	107.196
0.00281838	107.505
0.00283465	107.815
0.00285102	108.126
0.00286748	108.437
0.00288403	108.75
0.00290068	109.063
0.00291743	109.378
0.00293427	109.693
0.00295121	110.009
0.00296825	110.326
0.00298538	110.644
0.00300262	110.963
0.00301995	111.283
0.00303739	111.604
0.00305492	111.925
0.00307256	112.248
0.0030903	112.572
0.00310814	112.896
0.00312608	113.222
0.00314413	113.548
0.00316228	113.875
0.00318053	114.203
0.0031989	114.533
0.00321736	114.863
0.00323594	115.194
0.00325462	115.526
0.00327341	115.859
0.0032923	116.193
0.00331131	116.528
0.00333043	116.864
0.00334965	117.2
0.00336899	117.538
0.00338844	117.877
0.003408	118.217
0.00342768	118.557
0.00344747	118.899
0.00346737	119.242
0.00348739	119.586
0.00350752	119.93
0.00352777	120.276
0.00354813	120.623
0.00356862	120.97
0.00358922	121.319
0.00360994	121.669
0.00363078	122.019
0.00365174	122.371
0.00367282	122.724
0.00369403	123.078
0.00371535	123.432
0.0037368	123.788
0.00375837	124.145
0.00378007	124.503
0.00380189	124.862
0.00382384	125.222
0.00384592	125.582
0.00386812	125.944
0.00389045	126.307
0.00391291	126.672
0.0039355	127.037
0.00395822	127.403
0.00398107	127.77
0.00400405	128.138
0.00402717	128.508
0.00405042	128.878
0.0040738	129.25
0.00409732	129.622
0.00412098	129.996
0.00414477	130.37
0.00416869	130.746
0.00419276	131.123
0.00421697	131.501
0.00424131	131.88
0.0042658	132.26
0.00429042	132.641
0.00431519	133.024
0.0043401	133.407
0.00436516	133.792
0.00439036	134.177
0.0044157	134.564
0.0044412	134.952
0.00446684	135.341
0.00449262	135.731
0.00451856	136.122
0.00454465	136.515
0.00457088	136.908
0.00459727	137.303
0.00462381	137.698
0.0046505	138.095
0.00467735	138.493
0.00470435	138.893
0.00473151	139.293
0.00475883	139.694
0.0047863	140.097
0.00481393	140.501
0.00484172	140.906
0.00486968	141.312
0.00489779	141.719
0.00492606	142.128
0.0049545	142.537
0.0049831	142.948
0.00501187	143.36
0.00504081	143.774
0.00506991	144.188
0.00509918	144.604
0.00512861	145.02
0.00515822	145.438
0.005188	145.858
0.00521795	146.278
0.00524807	146.7
0.00527837	147.122
0.00530884	147.547
0.00533949	147.972
0.00537032	148.398
0.00540132	148.826
0.0054325	149.255
0.00546387	149.685
0.00549541	150.117
0.00552713	150.549
0.00555904	150.983
0.00559114	151.419
0.00562341	151.855
0.00565588	152.293
0.00568853	152.732
0.00572137	153.172
0.0057544	153.613
0.00578762	154.056
0.00582103	154.5
0.00585464	154.946
0.00588844	155.392
0.00592243	155.84
0.00595662	156.289
0.00599101	156.74
0.0060256	157.191
0.00606038	157.645
0.00609537	158.099
0.00613056	158.555
0.00616595	159.012
0.00620155	159.47
0.00623735	159.93
0.00627336	160.391
0.00630957	160.853
0.006346	161.317
0.00638263	161.782
0.00641948	162.248
0.00645654	162.716
0.00649382	163.185
0.00653131	163.655
0.00656901	164.127
0.00660693	164.6
0.00664508	165.074
0.00668344	165.55
0.00672202	166.027
0.00676083	166.506
0.00679986	166.986
0.00683912	167.467
0.0068786	167.95
0.00691831	168.434
0.00695825	168.919
0.00699842	169.406
0.00703882	169.894
0.00707946	170.384
0.00712033	170.875
0.00716143	171.368
0.00720278	171.862
0.00724436	172.357
0.00728618	172.854
0.00732825	173.352
0.00737055	173.852
0.0074131	174.353
0.0074559	174.855
0.00749894	175.359
0.00754223	175.865
0.00758578	176.372
0.00762957	176.88
0.00767361	177.39
0.00771792	177.901
0.00776247	178.414
0.00780728	178.928
0.00785236	179.444
0.00789769	179.961
0.00794328	180.48
0.00798914	181
0.00803526	181.522
0.00808165	182.045
0.00812831	182.57
0.00817523	183.096
0.00822243	183.624
0.0082699	184.153
0.00831764	184.684
0.00836566	185.216
0.00841395	185.75
0.00846253	186.285
0.00851138	186.822
0.00856052	187.361
0.00860994	187.901
0.00865964	188.443
0.00870964	188.986
0.00875992	189.53
0.00881049	190.077
0.00886135	190.625
0.00891251	191.174
0.00896396	191.725
0.00901571	192.278
0.00906776	192.832
0.00912011	193.388
0.00917276	193.945
0.00922571	194.504
0.00927897	195.065
0.00933254	195.627
0.00938642	196.191
0.00944061	196.756
0.00949511	197.324
0.00954993	197.892
0.00960506	198.463
0.00966051	199.035
0.00971628	199.608
0.00977237	200.174
0.00982879	200.737
0.00988553	201.302
0.0099426	201.868
0.01	202.436
0.0100577	203.006
0.0101158	203.577
0.0101742	204.15
0.0102329	204.724
0.010292	205.301
0.0103514	205.878
0.0104112	206.458
0.0104713	207.039
0.0105317	207.622
0.0105925	208.206
0.0106537	208.792
0.0107152	209.38
0.0107771	209.97
0.0108393	210.561
0.0109018	211.154
0.0109648	211.749
0.0110281	212.345
0.0110917	212.943
0.0111558	213.543
0.0112202	214.144
0.011285	214.748
0.0113501	215.353
0.0114156	215.959
0.0114815	216.568
0.0115478	217.178
0.0116145	217.79
0.0116815	218.404
0.011749	219.02
0.0118168	219.637
0.011885	220.256
0.0119536	220.877
0.0120226	221.5
0.0120921	222.124
0.0121619	222.75
0.0122321	223.378
0.0123027	224.008
0.0123737	224.64
0.0124451	225.274
0.012517	225.909
0.0125893	226.546
0.0126619	227.185
0.012735	227.826
0.0128086	228.469
0.0128825	229.113
0.0129569	229.76
0.0130317	230.408
0.0131069	231.058
0.0131826	231.71
0.0132587	232.364
0.0133352	233.02
0.0134122	233.678
0.0134896	234.338
0.0135675	234.999
0.0136458	235.663
0.0137246	236.328
0.0138038	236.995
0.0138835	237.664
0.0139637	238.336
0.0140443	239.009
0.0141254	239.684
0.0142069	240.361
0.0142889	241.04
0.0143714	241.721
0.0144544	242.404
0.0145378	243.088
0.0146218	243.775
0.0147062	244.464
0.0147911	245.155
0.0148765	245.848
0.0149624	246.542
0.0150487	247.239
0.0151356	247.938
0.015223	248.639
0.0153109	249.342
0.0153993	250.047
0.0154882	250.754
0.0155776	251.463
0.0156675	252.174
0.015758	252.887
0.0158489	253.602
0.0159404	254.319
0.0160325	255.039
0.016125	255.76
0.0162181	256.484
0.0163117	257.209
0.0164059	257.937
0.0165006	258.667
0.0165959	259.399
0.0166917	260.133
0.016788	260.869
0.016885	261.607
0.0169824	262.348
0.0170805	263.09
0.0171791	263.835
0.0172783	264.582
0.017378	265.331
0.0174783	266.082
0.0175792	266.836
0.0176807	267.591
0.0177828	268.349
0.0178855	269.109
0.0179887	269.871
0.0180926	270.636
0.018197	271.402
0.0183021	272.171
0.0184077	272.942
0.018514	273.716
0.0186209	274.491
0.0187284	275.269
0.0188365	276.049
0.0189452	276.831
0.0190546	277.616
0.0191646	278.403
0.0192752	279.192
0.0193865	279.983
0.0194984	280.777
0.019611	281.573
0.0197242	282.372
0.0198381	283.172
0.0199526	283.975
0.0200678	284.781
0.0201837	285.588
0.0203002	286.398
0.0204174	287.211
0.0205353	288.025
0.0206538	288.842
0.020773	289.662
0.020893	290.484
0.0210136	291.308
0.0211349	292.135
0.0212569	292.964
0.0213796	293.795
0.021503	294.629
0.0216272	295.465
0.021752	296.304
0.0218776	297.145
0.0220039	297.989
0.0221309	298.835
0.0222587	299.683
0.0223872	300.534
0.0225165	301.388
0.0226464	302.244
0.0227772	303.102
0.0229087	303.963
0.0230409	304.827
0.0231739	305.692
0.0233077	306.561
0.0234423	307.432
0.0235776	308.305
0.0237137	309.181
0.0238506	310.06
0.0239883	310.941
0.0241268	311.825
0.0242661	312.711
0.0244062	313.6
0.0245471	314.492
0.0246888	315.386
0.0248313	316.282
0.0249747	317.182
0.0251189	318.084
0.0252639	318.988
0.0254097	319.895
0.0255564	320.805
0.025704	321.718
0.0258523	322.633
0.0260016	323.55
0.0261517	324.471
0.0263027	325.394
0.0264545	326.32
0.0266073	327.248
0.0267609	328.18
0.0269153	329.114
0.0270707	330.05
0.027227	330.99
0.0273842	331.932
0.0275423	332.877
0.0277013	333.824
0.0278612	334.775
0.0280221	335.728
0.0281838	336.684
0.0283465	337.643
0.0285102	338.604
0.0286748	339.569
0.0288403	340.536
0.0290068	341.506
0.0291743	342.479
0.0293427	343.454
0.0295121	344.433
0.0296825	345.414
0.0298538	346.398
0.0300262	347.385
0.0301995	348.375
0.0303739	349.368
0.0305492	350.364
0.0307256	351.363
0.030903	352.364
0.0310814	353.369
0.0312608	354.376
0.0314413	355.387
0.0316228	356.4
0.0318053	357.416
0.031989	358.435
0.0321736	359.458
0.0323594	360.483
0.0325462	361.511
0.0327341	362.542
0.032923	363.577
0.0331131	364.614
0.0333043	365.654
0.0334965	366.698
0.0336899	367.744
0.0338844	368.793
0.03408	369.846
0.0342768	370.902
0.0344747	371.96
0.0346737	373.022
0.0348739	374.087
0.0350752	375.155
0.0352777	376.226
0.0354813	377.3
0.0356862	378.378
0.0358922	379.458
0.0360994	380.542
0.0363078	381.629
0.0365174	382.719
0.0367282	383.812
0.0369403	384.909
0.0371535	386.008
0.037368	387.111
0.0375837	388.217
0.0378007	389.327
0.0380189	390.439
0.0382384	391.555
0.0384592	392.674
0.0386812	393.797
0.0389045	394.922
0.0391291	395.372
0.039355	395.636
0.0395822	395.902
0.0398107	396.171
0.0400405	396.443
0.0402717	396.718
0.0405042	396.996
0.040738	397.276
0.0409732	397.558
0.0412098	397.844
0.0414477	398.131
0.0416869	398.422
0.0419276	398.714
0.0421697	399.01
0.0424131	399.307
0.042658	399.607
0.0429042	399.91
0.0431519	400.214
0.043401	400.521
0.0436516	400.83
0.0439036	401.142
0.044157	401.455
0.044412	401.771
0.0446684	402.089
0.0449262	402.409
0.0451856	402.731
0.0454465	403.055
0.0457088	403.381
0.0459727	403.71
0.0462381	404.04
0.046505	404.372
0.0467735	404.706
0.0470435	405.042
0.0473151	405.38
0.0475883	405.72
0.047863	406.062
0.0481393	406.406
0.0484172	406.751
0.0486968	407.098
0.0489779	407.447
0.0492606	407.798
0.049545	408.151
0.049831	408.505
0.0501187	408.861
0.0504081	409.219
0.0506991	409.578
0.0509918	409.939
0.0512861	410.302
0.0515822	410.667
0.05188	411.033
0.0521795	411.4
0.0524807	411.77
0.0527837	412.141
0.0530884	412.513
0.0533949	412.887
0.0537032	413.263
0.0540132	413.64
0.054325	414.018
0.0546387	414.399
0.0549541	414.78
0.0552713	415.164
0.0555904	415.548
0.0559114	415.935
0.0562341	416.322
0.0565588	416.711
0.0568853	417.102
0.0572137	417.494
0.057544	417.887
0.0578762	418.282
0.0582103	418.679
0.0585464	419.076
0.0588844	419.476
0.0592243	419.876
0.0595662	420.278
0.0599101	420.682
0.060256	421.086
0.0606038	421.492
0.0609537	421.9
0.0613056	422.309
0.0616595	422.719
0.0620155	423.131
0.0623735	423.544
0.0627336	423.958
0.0630957	424.374
0.06346	424.791
0.0638263	425.21
0.0641948	425.629
0.0645654	426.051
0.0649382	426.473
0.0653131	426.897
0.0656901	427.322
0.0660693	427.749
0.0664508	428.176
0.0668344	428.606
0.0672202	429.036
0.0676083	429.468
0.0679986	429.901
0.0683912	430.336
0.068786	430.772
0.0691831	431.209
0.0695825	431.648
0.0699842	432.087
0.0703882	432.529
0.0707946	432.971
0.0712033	433.415
0.0716143	433.861
0.0720278	434.307
0.0724436	434.755
0.0728618	435.205
0.0732825	435.655
0.0737055	436.108
0.074131	436.561
0.074559	437.016
0.0749894	437.472
0.0754223	437.93
0.0758578	438.389
0.0762957	438.849
0.0767361	439.311
0.0771792	439.774
0.0776247	440.238
0.0780728	440.704
0.0785236	441.171
0.0789769	441.64
0.0794328	442.11
0.0798914	442.582
0.0803526	443.055
0.0808165	443.529
0.0812831	444.005
0.0817523	444.482
0.0822243	444.961
0.082699	445.441
0.0831764	445.922
0.0836566	446.406
0.0841395	446.89
0.0846253	447.376
0.0851138	447.864
0.0856052	448.353
0.0860994	448.843
0.0865964	449.335
0.0870964	449.828
0.0875992	450.323
0.0881049	450.82
0.0886135	451.318
0.0891251	451.818
0.0896396	452.319
0.0901571	452.822
0.0906776	453.326
0.0912011	453.832
0.0917276	454.339
0.0922571	454.848
0.0927897	455.359
0.0933254	455.871
0.0938642	456.385
0.0944061	456.9
0.0949511	457.417
0.0954993	457.936
0.0960506	458.456
0.0966051	458.978
0.0971628	459.502
0.0977237	460.027
0.0982879	460.554
0.0988553	461.083
0.099426	461.614
0.1	462.146
0.100577	462.68
0.101158	463.215
0.101742	463.753
0.102329	464.292
0.10292	464.833
0.103514	465.375
0.104112	465.92
0.104713	466.466
0.105317	467.014
0.105925	467.564
0.106537	468.115
0.107152	468.669
0.107771	469.224
0.108393	469.781
0.109018	470.34
0.109648	470.901
0.110281	471.464
0.110917	472.029
0.111558	472.595
0.112202	473.164
0.11285	473.734
0.113501	474.306
0.114156	474.881
0.114815	475.457
0.115478	476.035
0.116145	476.615
0.116815	477.198
0.11749	477.782
0.118168	478.368
0.11885	478.956
0.119536	479.547
0.120226	480.139
0.120921	480.734
0.121619	481.33
0.122321	481.929
0.123027	482.529
0.123737	483.132
0.124451	483.737
0.12517	484.344
0.125893	484.953
0.126619	485.565
0.12735	486.178
0.128086	486.794
0.128825	487.412
0.129569	488.032
0.130317	488.654
0.131069	489.278
0.131826	489.905
0.132587	490.534
0.133352	491.165
0.134122	491.799
0.134896	492.435
0.135675	493.073
0.136458	493.713
0.137246	494.356
0.138038	495.001
0.138835	495.649
0.139637	496.298
0.140443	496.951
0.141254	497.605
0.142069	498.262
0.142889	498.921
0.143714	499.583
0.144544	500.247
0.145378	500.914
0.146218	501.583
0.147062	502.255
0.147911	502.929
0.148765	503.605
0.149624	504.284
0.150487	504.966
0.151356	505.65
0.15223	506.337
0.153109	507.026
0.153993	507.718
0.154882	508.412
0.155776	509.109
0.156675	509.809
0.15758	510.511
0.158489	511.216
0.159404	511.923
0.160325	512.633
0.16125	513.346
0.162181	514.061
0.163117	514.779
0.164059	515.5
0.165006	516.224
0.165959	516.95
0.166917	517.679
0.16788	518.411
0.16885	519.146
0.169824	519.883
0.170805	520.623
0.171791	521.366
0.172783	522.112
0.17378	522.86
0.174783	523.612
0.175792	524.366
0.176807	525.123
0.177828	525.883
0.178855	526.646
0.179887	527.412
0.180926	528.181
0.18197	528.953
0.183021	529.727
0.184077	530.505
0.18514	531.286
0.186209	532.069
0.187284	532.856
0.188365	533.645
0.189452	534.438
0.190546	535.234
0.191646	536.032
0.192752	536.834
0.193865	537.639
0.194984	538.447
0.19611	539.258
0.197242	540.072
0.198381	540.889
0.199526	541.709
0.200678	542.533
0.201837	543.359
0.203002	544.189
0.204174	545.022
0.205353	545.858
0.206538	546.698
0.20773	547.541
0.20893	548.386
0.210136	549.235
0.211349	550.088
0.212569	550.943
0.213796	551.802
0.21503	552.665
0.216272	553.53
0.21752	554.399
0.218776	555.271
0.220039	556.146
0.221309	557.025
0.222587	557.908
0.223872	558.793
0.225165	559.682
0.226464	560.575
0.227772	561.47
0.229087	562.37
0.230409	563.272
0.231739	564.178
0.233077	565.088
0.234423	566.001
0.235776	566.918
0.237137	567.838
0.238506	568.761
0.239883	569.688
0.241268	570.619
0.242661	571.553
0.244062	572.491
0.245471	573.432
0.246888	574.377
0.248313	575.326
0.249747	576.278
0.251189	577.233
0.252639	578.193
0.254097	579.156
0.255564	580.122
0.25704	581.093
0.258523	582.067
0.260016	583.044
0.261517	584.026
0.263027	585.011
0.264545	586
0.266073	586.992
0.267609	587.988
0.269153	588.988
0.270707	589.992
0.27227	591
0.273842	592.011
0.275423	593.026
0.277013	594.045
0.278612	595.068
0.280221	596.095
0.281838	597.125
0.283465	598.16
0.285102	599.198
0.286748	600.24
0.288403	601.286
0.290068	602.336
0.291743	603.39
0.293427	604.448
0.295121	605.509
0.296825	606.575
0.298538	607.645
0.300262	608.718
0.301995	609.796
0.303739	610.877
0.305492	611.963
0.307256	613.052
0.30903	614.146
0.310814	615.243
0.312608	616.345
0.314413	617.451
0.316228	618.56
0.318053	619.674
0.31989	620.792
0.321736	621.914
0.323594	623.04
0.325462	624.17
0.327341	625.305
0.32923	626.443
0.331131	627.586
0.333043	628.732
0.334965	629.883
0.336899	631.038
0.338844	632.198
0.3408	633.361
0.342768	634.529
0.344747	635.7
0.346737	636.877
0.348739	638.057
0.350752	639.241
0.352777	640.43
0.354813	641.623
0.356862	642.82
0.358922	644.022
0.360994	645.228
0.363078	646.438
0.365174	647.652
0.367282	648.871
0.369403	650.094
0.371535	651.321
0.37368	652.553
0.375837	653.789
0.378007	655.029
0.380189	656.274
0.382384	657.523
0.384592	658.776
0.386812	660.034
0.389045	661.296
0.391291	662.563
0.39355	663.834
0.395822	665.109
0.398107	666.389
0.400405	667.673
0.402717	668.962
0.405042	670.255
0.40738	671.552
0.409732	672.854
0.412098	674.161
0.414477	675.471
0.416869	676.787
0.419276	678.107
0.421697	679.431
0.424131	680.76
0.42658	682.093
0.429042	683.431
0.431519	684.773
0.43401	686.12
0.436516	687.471
0.439036	688.827
0.44157	690.187
0.44412	691.552
0.446684	692.921
0.449262	694.295
0.451856	695.674
0.454465	697.057
0.457088	698.444
0.459727	699.837
0.462381	701.233
0.46505	702.635
0.467735	704.04
0.470435	705.451
0.473151	706.866
0.475883	708.285
0.47863	709.709
0.481393	711.138
0.484172	712.572
0.486968	714.009
0.489779	715.452
0.492606	716.899
0.49545	718.351
0.49831	719.807
0.501187	721.268
0.504081	722.733
0.506991	724.204
0.509918	725.678
0.512861	727.158
0.515822	728.642
0.5188	730.13
0.521795	731.623
0.524807	733.121
0.527837	734.623
0.530884	736.13
0.533949	737.642
0.537032	739.158
0.540132	740.679
0.54325	742.205
0.546387	743.735
0.549541	745.269
0.552713	746.809
0.555904	748.352
0.559114	749.901
0.562341	751.454
0.565588	753.012
0.568853	754.574
0.572137	756.141
0.57544	757.712
0.578762	759.288
0.582103	760.869
0.585464	762.454
0.588844	764.044
0.592243	765.638
0.595662	767.237
0.599101	768.84
0.60256	770.448
0.606038	772.061
0.609537	773.678
0.613056	775.3
