Stopping power dEdx from Ionisation for K39[0.0] Z = 19 in G4_Si, process name: ionIoni
E [MeV]	dEdx [MeV/mm]
0.001	29.3453
0.00100577	29.4305
0.00101158	29.516
0.00101742	29.6017
0.00102329	29.6876
0.0010292	29.7738
0.00103514	29.8603
0.00104112	29.947
0.00104713	30.0339
0.00105317	30.1211
0.00105925	30.2086
0.00106537	30.2963
0.00107152	30.3842
0.00107771	30.4724
0.00108393	30.5609
0.00109018	30.6496
0.00109648	30.7386
0.00110281	30.8278
0.00110917	30.9173
0.00111558	31.0071
0.00112202	31.0971
0.0011285	31.1873
0.00113501	31.2778
0.00114156	31.3686
0.00114815	31.4597
0.00115478	31.551
0.00116145	31.6426
0.00116815	31.7344
0.0011749	31.8265
0.00118168	31.9189
0.0011885	32.0115
0.00119536	32.1044
0.00120226	32.1976
0.00120921	32.291
0.00121619	32.3847
0.00122321	32.4787
0.00123027	32.5729
0.00123737	32.6674
0.00124451	32.7622
0.0012517	32.8573
0.00125893	32.9526
0.00126619	33.0482
0.0012735	33.1441
0.00128086	33.2403
0.00128825	33.3367
0.00129569	33.4334
0.00130317	33.5304
0.00131069	33.6277
0.00131826	33.7253
0.00132587	33.8231
0.00133352	33.9212
0.00134122	34.0196
0.00134896	34.1183
0.00135675	34.2173
0.00136458	34.3166
0.00137246	34.4161
0.00138038	34.5159
0.00138835	34.616
0.00139637	34.7164
0.00140443	34.8171
0.00141254	34.9181
0.00142069	35.0194
0.00142889	35.121
0.00143714	35.2228
0.00144544	35.325
0.00145378	35.4274
0.00146218	35.5302
0.00147062	35.6332
0.00147911	35.7366
0.00148765	35.8402
0.00149624	35.9441
0.00150487	36.0484
0.00151356	36.1529
0.0015223	36.2577
0.00153109	36.3629
0.00153993	36.4683
0.00154882	36.5741
0.00155776	36.6801
0.00156675	36.7865
0.0015758	36.8931
0.00158489	37.0001
0.00159404	37.1074
0.00160325	37.215
0.0016125	37.3229
0.00162181	37.4311
0.00163117	37.5396
0.00164059	37.6484
0.00165006	37.7576
0.00165959	37.867
0.00166917	37.9768
0.0016788	38.0869
0.0016885	38.1973
0.00169824	38.308
0.00170805	38.4191
0.00171791	38.5305
0.00172783	38.6422
0.0017378	38.7542
0.00174783	38.8665
0.00175792	38.9792
0.00176807	39.0921
0.00177828	39.2054
0.00178855	39.3191
0.00179887	39.433
0.00180926	39.5473
0.0018197	39.662
0.00183021	39.7769
0.00184077	39.8922
0.0018514	40.0078
0.00186209	40.1237
0.00187284	40.24
0.00188365	40.3566
0.00189452	40.4736
0.00190546	40.5909
0.00191646	40.7085
0.00192752	40.8265
0.00193865	40.9448
0.00194984	41.0634
0.0019611	41.1824
0.00197242	41.3018
0.00198381	41.4214
0.00199526	41.5415
0.00200678	41.6618
0.00201837	41.7825
0.00203002	41.9036
0.00204174	42.025
0.00205353	42.1468
0.00206538	42.2689
0.0020773	42.3914
0.0020893	42.5142
0.00210136	42.6374
0.00211349	42.7609
0.00212569	42.8848
0.00213796	43.009
0.0021503	43.1336
0.00216272	43.2586
0.0021752	43.3839
0.00218776	43.5096
0.00220039	43.6356
0.00221309	43.762
0.00222587	43.8888
0.00223872	44.0159
0.00225165	44.1434
0.00226464	44.2713
0.00227772	44.3995
0.00229087	44.5281
0.00230409	44.6571
0.00231739	44.7864
0.00233077	44.9162
0.00234423	45.0462
0.00235776	45.1767
0.00237137	45.3076
0.00238506	45.4388
0.00239883	45.5704
0.00241268	45.7024
0.00242661	45.8347
0.00244062	45.9675
0.00245471	46.1006
0.00246888	46.2341
0.00248313	46.368
0.00249747	46.5023
0.00251189	46.637
0.00252639	46.772
0.00254097	46.9074
0.00255564	47.0433
0.0025704	47.1795
0.00258523	47.3161
0.00260016	47.4531
0.00261517	47.5906
0.00263027	47.7284
0.00264545	47.8666
0.00266073	48.0052
0.00267609	48.1442
0.00269153	48.2836
0.00270707	48.4234
0.0027227	48.5636
0.00273842	48.7042
0.00275423	48.8452
0.00277013	48.9866
0.00278612	49.1284
0.00280221	49.2707
0.00281838	49.4133
0.00283465	49.5564
0.00285102	49.6998
0.00286748	49.8437
0.00288403	49.988
0.00290068	50.1327
0.00291743	50.2779
0.00293427	50.4234
0.00295121	50.5694
0.00296825	50.7158
0.00298538	50.8626
0.00300262	51.0098
0.00301995	51.1575
0.00303739	51.3056
0.00305492	51.4541
0.00307256	51.603
0.0030903	51.7524
0.00310814	51.9022
0.00312608	52.0524
0.00314413	52.2031
0.00316228	52.3542
0.00318053	52.5057
0.0031989	52.6577
0.00321736	52.8101
0.00323594	52.9629
0.00325462	53.1162
0.00327341	53.27
0.0032923	53.4241
0.00331131	53.5788
0.00333043	53.7338
0.00334965	53.8893
0.00336899	54.0453
0.00338844	54.2017
0.003408	54.3586
0.00342768	54.5159
0.00344747	54.6736
0.00346737	54.8319
0.00348739	54.9905
0.00350752	55.1497
0.00352777	55.3093
0.00354813	55.4693
0.00356862	55.6298
0.00358922	55.7908
0.00360994	55.9522
0.00363078	56.1141
0.00365174	56.2765
0.00367282	56.4394
0.00369403	56.6027
0.00371535	56.7664
0.0037368	56.9307
0.00375837	57.0954
0.00378007	57.2606
0.00380189	57.4263
0.00382384	57.5925
0.00384592	57.7591
0.00386812	57.9262
0.00389045	58.0938
0.00391291	58.2619
0.0039355	58.4304
0.00395822	58.5995
0.00398107	58.769
0.00400405	58.939
0.00402717	59.1096
0.00405042	59.2806
0.0040738	59.4521
0.00409732	59.6241
0.00412098	59.7965
0.00414477	59.9695
0.00416869	60.143
0.00419276	60.317
0.00421697	60.4915
0.00424131	60.6665
0.0042658	60.842
0.00429042	61.018
0.00431519	61.1945
0.0043401	61.3715
0.00436516	61.549
0.00439036	61.7271
0.0044157	61.9056
0.0044412	62.0847
0.00446684	62.2642
0.00449262	62.4443
0.00451856	62.625
0.00454465	62.8061
0.00457088	62.9878
0.00459727	63.1699
0.00462381	63.3527
0.0046505	63.5359
0.00467735	63.7197
0.00470435	63.904
0.00473151	64.0888
0.00475883	64.2741
0.0047863	64.46
0.00481393	64.6465
0.00484172	64.8334
0.00486968	65.0209
0.00489779	65.209
0.00492606	65.3976
0.0049545	65.5867
0.0049831	65.7764
0.00501187	65.9666
0.00504081	66.1574
0.00506991	66.3487
0.00509918	66.5405
0.00512861	66.733
0.00515822	66.926
0.005188	67.1195
0.00521795	67.3136
0.00524807	67.5082
0.00527837	67.7034
0.00530884	67.8992
0.00533949	68.0956
0.00537032	68.2925
0.00540132	68.4899
0.0054325	68.688
0.00546387	68.8866
0.00549541	69.0858
0.00552713	69.2856
0.00555904	69.4859
0.00559114	69.6868
0.00562341	69.8883
0.00565588	70.0904
0.00568853	70.293
0.00572137	70.4963
0.0057544	70.7001
0.00578762	70.9045
0.00582103	71.1095
0.00585464	71.3151
0.00588844	71.5213
0.00592243	71.7281
0.00595662	71.9355
0.00599101	72.1434
0.0060256	72.352
0.00606038	72.5612
0.00609537	72.771
0.00613056	72.9813
0.00616595	73.1923
0.00620155	73.4039
0.00623735	73.6161
0.00627336	73.829
0.00630957	74.0424
0.006346	74.2564
0.00638263	74.4711
0.00641948	74.6864
0.00645654	74.9023
0.00649382	75.1188
0.00653131	75.336
0.00656901	75.5537
0.00660693	75.7721
0.00664508	75.9912
0.00668344	76.2108
0.00672202	76.4311
0.00676083	76.6521
0.00679986	76.8736
0.00683912	77.0959
0.0068786	77.3187
0.00691831	77.5422
0.00695825	77.7663
0.00699842	77.9911
0.00703882	78.2165
0.00707946	78.4426
0.00712033	78.6694
0.00716143	78.8967
0.00720278	79.1248
0.00724436	79.3535
0.00728618	79.5828
0.00732825	79.8128
0.00737055	80.0435
0.0074131	80.2749
0.0074559	80.5069
0.00749894	80.7396
0.00754223	80.9729
0.00758578	81.2069
0.00762957	81.4416
0.00767361	81.677
0.00771792	81.9131
0.00776247	82.1498
0.00780728	82.3872
0.00785236	82.6253
0.00789769	82.8641
0.00794328	83.1036
0.00798914	83.3438
0.00803526	83.5846
0.00808165	83.8262
0.00812831	84.0684
0.00817523	84.3114
0.00822243	84.555
0.0082699	84.7994
0.00831764	85.0444
0.00836566	85.2902
0.00841395	85.5366
0.00846253	85.7838
0.00851138	86.0317
0.00856052	86.2803
0.00860994	86.5296
0.00865964	86.7797
0.00870964	87.0304
0.00875992	87.2819
0.00881049	87.5341
0.00886135	87.7871
0.00891251	88.0407
0.00896396	88.2951
0.00901571	88.5503
0.00906776	88.8061
0.00912011	89.0627
0.00917276	91.6557
0.00922571	91.9192
0.00927897	92.1835
0.00933254	92.4485
0.00938642	92.7143
0.00944061	92.9808
0.00949511	93.2482
0.00954993	93.5162
0.00960506	93.7851
0.00966051	94.0547
0.00971628	94.3251
0.00977237	94.5962
0.00982879	94.8682
0.00988553	95.1409
0.0099426	95.4144
0.01	95.6886
0.0100577	95.9637
0.0101158	96.2396
0.0101742	96.5162
0.0102329	96.7937
0.010292	97.0719
0.0103514	97.3509
0.0104112	97.6308
0.0104713	97.9114
0.0105317	98.1928
0.0105925	98.4751
0.0106537	98.7581
0.0107152	99.042
0.0107771	99.3267
0.0108393	99.6122
0.0109018	99.8985
0.0109648	100.186
0.0110281	100.474
0.0110917	100.762
0.0111558	101.052
0.0112202	101.342
0.011285	101.634
0.0113501	101.926
0.0114156	102.219
0.0114815	102.513
0.0115478	102.807
0.0116145	103.103
0.0116815	103.399
0.011749	103.696
0.0118168	103.994
0.011885	104.293
0.0119536	104.593
0.0120226	104.893
0.0120921	105.195
0.0121619	105.497
0.0122321	105.8
0.0123027	106.104
0.0123737	106.409
0.0124451	106.715
0.012517	107.022
0.0125893	107.329
0.0126619	107.638
0.012735	107.947
0.0128086	108.257
0.0128825	108.568
0.0129569	108.88
0.0130317	109.193
0.0131069	109.507
0.0131826	109.822
0.0132587	110.137
0.0133352	110.454
0.0134122	110.771
0.0134896	111.089
0.0135675	111.409
0.0136458	111.729
0.0137246	112.05
0.0138038	112.372
0.0138835	112.694
0.0139637	113.018
0.0140443	113.343
0.0141254	113.669
0.0142069	113.995
0.0142889	114.323
0.0143714	114.651
0.0144544	114.981
0.0145378	115.311
0.0146218	115.642
0.0147062	115.975
0.0147911	116.308
0.0148765	116.642
0.0149624	116.977
0.0150487	117.313
0.0151356	117.65
0.015223	117.988
0.0153109	118.327
0.0153993	118.667
0.0154882	119.008
0.0155776	119.35
0.0156675	119.693
0.015758	120.036
0.0158489	120.381
0.0159404	120.727
0.0160325	121.074
0.016125	121.422
0.0162181	121.77
0.0163117	122.12
0.0164059	122.471
0.0165006	122.823
0.0165959	123.176
0.0166917	123.529
0.016788	123.884
0.016885	124.24
0.0169824	124.597
0.0170805	124.955
0.0171791	125.314
0.0172783	125.674
0.017378	126.035
0.0174783	126.397
0.0175792	126.76
0.0176807	127.124
0.0177828	127.489
0.0178855	127.855
0.0179887	128.222
0.0180926	128.59
0.018197	128.96
0.0183021	129.33
0.0184077	129.701
0.018514	130.074
0.0186209	130.447
0.0187284	130.822
0.0188365	131.198
0.0189452	131.575
0.0190546	131.952
0.0191646	132.331
0.0192752	132.711
0.0193865	133.092
0.0194984	133.475
0.019611	133.858
0.0197242	134.242
0.0198381	134.628
0.0199526	135.014
0.0200678	135.402
0.0201837	135.791
0.0203002	136.181
0.0204174	136.572
0.0205353	136.964
0.0206538	137.357
0.020773	137.752
0.020893	138.147
0.0210136	138.544
0.0211349	138.941
0.0212569	139.34
0.0213796	139.74
0.021503	140.142
0.0216272	140.544
0.021752	140.948
0.0218776	141.352
0.0220039	141.758
0.0221309	142.165
0.0222587	142.573
0.0223872	142.982
0.0225165	143.393
0.0226464	143.804
0.0227772	144.217
0.0229087	144.631
0.0230409	145.047
0.0231739	145.463
0.0233077	145.88
0.0234423	146.299
0.0235776	146.719
0.0237137	147.14
0.0238506	147.563
0.0239883	147.986
0.0241268	148.411
0.0242661	148.837
0.0244062	149.264
0.0245471	149.693
0.0246888	150.122
0.0248313	150.553
0.0249747	150.985
0.0251189	151.419
0.0252639	151.853
0.0254097	152.289
0.0255564	152.726
0.025704	153.164
0.0258523	153.604
0.0260016	154.045
0.0261517	154.487
0.0263027	154.93
0.0264545	155.375
0.0266073	155.821
0.0267609	156.268
0.0269153	156.716
0.0270707	157.166
0.027227	157.617
0.0273842	158.07
0.0275423	158.523
0.0277013	158.978
0.0278612	159.434
0.0280221	159.892
0.0281838	160.35
0.0283465	160.811
0.0285102	161.272
0.0286748	161.735
0.0288403	162.199
0.0290068	162.664
0.0291743	163.131
0.0293427	163.599
0.0295121	164.068
0.0296825	164.539
0.0298538	165.011
0.0300262	165.485
0.0301995	165.959
0.0303739	166.435
0.0305492	166.913
0.0307256	167.392
0.030903	167.872
0.0310814	168.354
0.0312608	168.837
0.0314413	169.321
0.0316228	169.807
0.0318053	170.294
0.031989	170.782
0.0321736	171.272
0.0323594	171.763
0.0325462	172.256
0.0327341	172.75
0.032923	173.246
0.0331131	173.743
0.0333043	174.241
0.0334965	174.741
0.0336899	175.242
0.0338844	175.745
0.03408	176.249
0.0342768	176.754
0.0344747	177.261
0.0346737	177.769
0.0348739	178.279
0.0350752	178.791
0.0352777	179.303
0.0354813	179.818
0.0356862	180.333
0.0358922	180.85
0.0360994	181.369
0.0363078	181.889
0.0365174	182.411
0.0367282	182.934
0.0369403	183.458
0.0371535	183.985
0.037368	184.512
0.0375837	185.041
0.0378007	185.572
0.0380189	186.104
0.0382384	186.637
0.0384592	187.173
0.0386812	187.709
0.0389045	188.247
0.0391291	188.787
0.039355	189.328
0.0395822	189.871
0.0398107	190.416
0.0400405	190.962
0.0402717	191.509
0.0405042	192.058
0.040738	192.609
0.0409732	193.161
0.0412098	193.715
0.0414477	194.27
0.0416869	194.827
0.0419276	195.385
0.0421697	195.945
0.0424131	196.507
0.042658	197.07
0.0429042	197.635
0.0431519	198.202
0.043401	198.77
0.0436516	199.34
0.0439036	199.911
0.044157	200.484
0.044412	201.059
0.0446684	201.635
0.0449262	202.213
0.0451856	202.792
0.0454465	203.373
0.0457088	203.956
0.0459727	204.541
0.0462381	205.127
0.046505	205.715
0.0467735	206.304
0.0470435	206.896
0.0473151	207.488
0.0475883	208.083
0.047863	208.679
0.0481393	209.277
0.0484172	209.877
0.0486968	210.478
0.0489779	211.081
0.0492606	211.686
0.049545	212.293
0.049831	212.901
0.0501187	213.511
0.0504081	214.123
0.0506991	214.736
0.0509918	215.351
0.0512861	215.968
0.0515822	216.587
0.05188	217.208
0.0521795	217.83
0.0524807	218.454
0.0527837	219.08
0.0530884	219.707
0.0533949	220.337
0.0537032	220.968
0.0540132	221.601
0.054325	222.235
0.0546387	222.872
0.0549541	223.51
0.0552713	224.151
0.0555904	224.793
0.0559114	225.437
0.0562341	226.082
0.0565588	226.73
0.0568853	227.379
0.0572137	228.03
0.057544	228.683
0.0578762	229.338
0.0582103	229.995
0.0585464	230.654
0.0588844	231.314
0.0592243	231.977
0.0595662	232.641
0.0599101	233.307
0.060256	233.975
0.0606038	234.645
0.0609537	235.317
0.0613056	235.991
0.0616595	236.667
0.0620155	237.344
0.0623735	238.024
0.0627336	238.705
0.0630957	239.389
0.06346	240.074
0.0638263	240.761
0.0641948	241.451
0.0645654	242.142
0.0649382	242.835
0.0653131	243.53
0.0656901	244.227
0.0660693	244.927
0.0664508	245.628
0.0668344	246.331
0.0672202	247.036
0.0676083	247.743
0.0679986	248.452
0.0683912	249.163
0.068786	249.876
0.0691831	250.592
0.0695825	251.309
0.0699842	252.028
0.0703882	252.749
0.0707946	253.473
0.0712033	254.198
0.0716143	254.926
0.0720278	255.655
0.0724436	256.387
0.0728618	257.12
0.0732825	257.856
0.0737055	258.594
0.074131	259.334
0.074559	260.076
0.0749894	260.82
0.0754223	261.567
0.0758578	262.315
0.0762957	263.065
0.0767361	263.818
0.0771792	264.573
0.0776247	265.33
0.0780728	266.089
0.0785236	266.85
0.0789769	267.614
0.0794328	268.379
0.0798914	269.147
0.0803526	269.917
0.0808165	270.689
0.0812831	271.463
0.0817523	272.24
0.0822243	273.018
0.082699	273.799
0.0831764	274.583
0.0836566	275.368
0.0841395	276.155
0.0846253	276.945
0.0851138	277.737
0.0856052	278.532
0.0860994	279.328
0.0865964	280.127
0.0870964	280.928
0.0875992	281.731
0.0881049	282.537
0.0886135	283.345
0.0891251	284.155
0.0896396	284.968
0.0901571	285.783
0.0906776	286.6
0.0912011	287.419
0.0917276	288.241
0.0922571	289.065
0.0927897	289.892
0.0933254	290.72
0.0938642	291.551
0.0944061	292.385
0.0949511	293.221
0.0954993	294.059
0.0960506	294.9
0.0966051	295.743
0.0971628	296.588
0.0977237	297.436
0.0982879	298.286
0.0988553	299.139
0.099426	299.994
0.1	300.851
0.100577	301.711
0.101158	302.573
0.101742	303.438
0.102329	304.305
0.10292	305.175
0.103514	306.047
0.104112	306.921
0.104713	307.798
0.105317	308.678
0.105925	309.56
0.106537	310.444
0.107152	311.331
0.107771	312.221
0.108393	313.113
0.109018	314.008
0.109648	314.905
0.110281	315.804
0.110917	316.707
0.111558	317.611
0.112202	318.519
0.11285	319.429
0.113501	320.341
0.114156	321.256
0.114815	322.174
0.115478	323.094
0.116145	324.017
0.116815	324.942
0.11749	325.87
0.118168	326.801
0.11885	327.735
0.119536	328.671
0.120226	329.609
0.120921	330.55
0.121619	331.494
0.122321	332.441
0.123027	333.39
0.123737	334.342
0.124451	335.297
0.12517	336.254
0.125893	337.214
0.126619	338.177
0.12735	339.143
0.128086	340.111
0.128825	341.082
0.129569	342.056
0.130317	343.032
0.131069	344.011
0.131826	344.993
0.132587	345.978
0.133352	346.966
0.134122	347.956
0.134896	348.949
0.135675	349.945
0.136458	350.944
0.137246	351.946
0.138038	352.95
0.138835	353.957
0.139637	354.968
0.140443	355.981
0.141254	356.996
0.142069	358.015
0.142889	359.037
0.143714	360.061
0.144544	361.089
0.145378	362.119
0.146218	363.152
0.147062	364.188
0.147911	365.227
0.148765	366.269
0.149624	367.314
0.150487	368.362
0.151356	369.413
0.15223	370.466
0.153109	371.523
0.153993	372.583
0.154882	373.646
0.155776	374.711
0.156675	375.78
0.15758	376.852
0.158489	377.927
0.159404	379.004
0.160325	380.085
0.16125	381.169
0.162181	382.256
0.163117	383.346
0.164059	384.439
0.165006	385.535
0.165959	386.635
0.166917	387.737
0.16788	388.842
0.16885	389.951
0.169824	391.063
0.170805	392.178
0.171791	393.296
0.172783	394.417
0.17378	395.541
0.174783	396.669
0.175792	397.799
0.176807	398.933
0.177828	400.07
0.178855	401.21
0.179887	402.354
0.180926	403.5
0.18197	404.65
0.183021	405.804
0.184077	406.96
0.18514	408.12
0.186209	409.283
0.187284	410.449
0.188365	411.618
0.189452	412.791
0.190546	413.967
0.191646	415.146
0.192752	416.329
0.193865	417.515
0.194984	418.705
0.19611	419.897
0.197242	421.093
0.198381	422.293
0.199526	423.496
0.200678	424.702
0.201837	425.912
0.203002	427.125
0.204174	428.341
0.205353	429.561
0.206538	430.784
0.20773	432.011
0.20893	433.241
0.210136	434.475
0.211349	435.712
0.212569	436.952
0.213796	438.196
0.21503	439.444
0.216272	440.695
0.21752	441.95
0.218776	443.208
0.220039	444.469
0.221309	445.735
0.222587	447.003
0.223872	448.276
0.225165	449.552
0.226464	450.831
0.227772	452.114
0.229087	453.401
0.230409	454.691
0.231739	455.985
0.233077	457.283
0.234423	458.584
0.235776	459.889
0.237137	461.197
0.238506	462.51
0.239883	463.825
0.241268	465.145
0.242661	466.468
0.244062	467.795
0.245471	469.126
0.246888	470.461
0.248313	471.799
0.249747	473.141
0.251189	474.487
0.252639	475.836
0.254097	477.189
0.255564	478.546
0.25704	479.907
0.258523	481.272
0.260016	482.641
0.261517	484.013
0.263027	485.389
0.264545	486.769
0.266073	488.153
0.267609	489.541
0.269153	490.933
0.270707	492.329
0.27227	493.728
0.273842	495.132
0.275423	496.539
0.277013	497.95
0.278612	499.366
0.280221	500.785
0.281838	502.208
0.283465	503.636
0.285102	505.067
0.286748	506.502
0.288403	507.941
0.290068	509.385
0.291743	510.832
0.293427	512.283
0.295121	513.739
0.296825	515.198
0.298538	516.662
0.300262	518.13
0.301995	519.602
0.303739	521.078
0.305492	522.558
0.307256	524.042
0.30903	525.53
0.310814	527.023
0.312608	528.52
0.314413	530.021
0.316228	531.526
0.318053	533.035
0.31989	534.549
0.321736	536.066
0.323594	537.588
0.325462	539.115
0.327341	540.645
0.32923	542.18
0.331131	543.719
0.333043	545.263
0.334965	546.81
0.336899	548.362
0.338844	549.919
0.3408	551.48
0.342768	553.045
0.344747	554.614
0.346737	556.188
0.348739	557.766
0.350752	559.349
0.352777	560.936
0.354813	562.528
0.356862	564.124
0.358922	565.724
0.360994	567.329
0.363078	568.938
0.365174	570.552
0.367282	572.171
0.369403	573.793
0.371535	575.421
0.37368	577.053
0.375837	578.689
0.378007	580.33
0.380189	581.976
0.382384	583.626
0.384592	585.281
0.386812	586.941
0.389045	588.605
0.391291	590.274
0.39355	591.947
0.395822	593.625
0.398107	595.308
0.400405	596.995
0.402717	598.687
0.405042	600.384
0.40738	602.086
0.409732	603.792
0.412098	605.503
0.414477	607.219
0.416869	608.94
0.419276	610.665
0.421697	612.395
0.424131	614.13
0.42658	615.87
0.429042	617.615
0.431519	619.364
0.43401	621.119
0.436516	622.878
0.439036	624.642
0.44157	626.411
0.44412	628.185
0.446684	629.964
0.449262	631.748
0.451856	633.537
0.454465	635.331
0.457088	637.13
0.459727	638.934
0.462381	640.743
0.46505	642.557
0.467735	644.376
0.470435	646.2
0.473151	648.029
0.475883	649.863
0.47863	651.702
0.481393	653.546
0.484172	655.396
0.486968	657.251
0.489779	659.11
0.492606	660.975
0.49545	662.845
0.49831	664.721
0.501187	666.601
0.504081	668.487
0.506991	670.378
0.509918	672.274
0.512861	674.176
0.515822	676.082
0.5188	677.995
0.521795	679.912
0.524807	681.835
0.527837	683.763
0.530884	685.696
0.533949	687.635
0.537032	689.579
0.540132	691.528
0.54325	693.483
0.546387	695.443
0.549541	697.409
0.552713	699.38
0.555904	701.357
0.559114	703.339
0.562341	705.327
0.565588	707.32
0.568853	709.319
0.572137	711.323
0.57544	713.333
0.578762	715.348
0.582103	717.369
0.585464	719.395
0.588844	721.427
0.592243	723.465
0.595662	725.508
0.599101	727.557
0.60256	729.612
0.606038	731.672
0.609537	733.738
