Stopping power dEdx from Ionisation for kaon+ Z = 0 in Water, process name: hIoni
E [MeV]	dEdx [MeV/mm]
0.001	23.6907
0.00100577	23.7589
0.00101158	23.8274
0.00101742	23.8961
0.00102329	23.965
0.0010292	24.0341
0.00103514	24.1033
0.00104112	24.1728
0.00104713	24.2425
0.00105317	24.3124
0.00105925	24.3824
0.00106537	24.4527
0.00107152	24.5232
0.00107771	24.5939
0.00108393	24.6648
0.00109018	24.7359
0.00109648	24.8072
0.00110281	24.8787
0.00110917	24.9504
0.00111558	25.0223
0.00112202	25.0944
0.0011285	25.1667
0.00113501	25.2393
0.00114156	25.312
0.00114815	25.385
0.00115478	25.4582
0.00116145	25.5315
0.00116815	25.6051
0.0011749	25.6789
0.00118168	25.753
0.0011885	25.8272
0.00119536	25.9016
0.00120226	25.9763
0.00120921	26.0512
0.00121619	26.1262
0.00122321	26.2016
0.00123027	26.2771
0.00123737	26.3528
0.00124451	26.4288
0.0012517	26.505
0.00125893	26.5813
0.00126619	26.658
0.0012735	26.7348
0.00128086	26.8119
0.00128825	26.8891
0.00129569	26.9667
0.00130317	27.0444
0.00131069	27.1223
0.00131826	27.2005
0.00132587	27.2789
0.00133352	27.3575
0.00134122	27.4364
0.00134896	27.5155
0.00135675	27.5948
0.00136458	27.6743
0.00137246	27.7541
0.00138038	27.8341
0.00138835	27.9143
0.00139637	27.9948
0.00140443	28.0755
0.00141254	28.1564
0.00142069	28.2375
0.00142889	28.3189
0.00143714	28.4006
0.00144544	28.4824
0.00145378	28.5645
0.00146218	28.6469
0.00147062	28.7294
0.00147911	28.8122
0.00148765	28.8953
0.00149624	28.9786
0.00150487	29.0621
0.00151356	29.1459
0.0015223	29.2299
0.00153109	29.3141
0.00153993	29.3986
0.00154882	29.4834
0.00155776	29.5683
0.00156675	29.6536
0.0015758	29.739
0.00158489	29.8248
0.00159404	29.9107
0.00160325	29.9969
0.0016125	30.0834
0.00162181	30.1701
0.00163117	30.2571
0.00164059	30.3443
0.00165006	30.4318
0.00165959	30.5195
0.00166917	30.6074
0.0016788	30.6957
0.0016885	30.7841
0.00169824	30.8729
0.00170805	30.9619
0.00171791	31.0511
0.00172783	31.1406
0.0017378	31.2304
0.00174783	31.3204
0.00175792	31.4107
0.00176807	31.5012
0.00177828	31.592
0.00178855	31.6831
0.00179887	31.7744
0.00180926	31.866
0.0018197	31.9578
0.00183021	32.0499
0.00184077	32.1423
0.0018514	32.235
0.00186209	32.3279
0.00187284	32.421
0.00188365	32.5145
0.00189452	32.6082
0.00190546	32.7022
0.00191646	32.7965
0.00192752	32.891
0.00193865	32.9858
0.00194984	33.0809
0.0019611	33.1762
0.00197242	33.2719
0.00198381	33.3678
0.00199526	33.4639
0.00200678	33.5604
0.00201837	33.6571
0.00203002	33.7541
0.00204174	33.8514
0.00205353	33.949
0.00206538	34.0469
0.0020773	34.145
0.0020893	34.2434
0.00210136	34.3421
0.00211349	34.4411
0.00212569	34.5404
0.00213796	34.6399
0.0021503	34.7398
0.00216272	34.8399
0.0021752	34.9403
0.00218776	35.041
0.00220039	35.142
0.00221309	35.2433
0.00222587	35.3449
0.00223872	35.4468
0.00225165	35.549
0.00226464	35.6514
0.00227772	35.7542
0.00229087	35.8573
0.00230409	35.9606
0.00231739	36.0643
0.00233077	36.1682
0.00234423	36.2725
0.00235776	36.377
0.00237137	36.4819
0.00238506	36.587
0.00239883	36.6925
0.00241268	36.7982
0.00242661	36.9043
0.00244062	37.0107
0.00245471	37.1174
0.00246888	37.2243
0.00248313	37.3316
0.00249747	37.4392
0.00251189	37.5472
0.00252639	37.6554
0.00254097	37.7639
0.00255564	37.8728
0.0025704	37.9819
0.00258523	38.0914
0.00260016	38.2012
0.00261517	38.3113
0.00263027	38.4217
0.00264545	38.5325
0.00266073	38.6435
0.00267609	38.7549
0.00269153	38.8666
0.00270707	38.9787
0.0027227	39.091
0.00273842	39.2037
0.00275423	39.3167
0.00277013	39.43
0.00278612	39.5437
0.00280221	39.6577
0.00281838	39.772
0.00283465	39.8866
0.00285102	40.0016
0.00286748	40.1169
0.00288403	40.2325
0.00290068	40.3485
0.00291743	40.4648
0.00293427	40.5814
0.00295121	40.6984
0.00296825	40.8157
0.00298538	40.9333
0.00300262	41.0513
0.00301995	41.1696
0.00303739	41.2883
0.00305492	41.4073
0.00307256	41.5267
0.0030903	41.6464
0.00310814	41.7664
0.00312608	41.8868
0.00314413	42.0075
0.00316228	42.1286
0.00318053	42.25
0.0031989	42.3718
0.00321736	42.4939
0.00323594	42.6164
0.00325462	42.7393
0.00327341	42.8625
0.0032923	42.986
0.00331131	43.1099
0.00333043	43.2342
0.00334965	43.3588
0.00336899	43.4838
0.00338844	43.6091
0.003408	43.7348
0.00342768	43.8608
0.00344747	43.9873
0.00346737	44.1141
0.00348739	44.2412
0.00350752	44.3687
0.00352777	44.4966
0.00354813	44.6249
0.00356862	44.7535
0.00358922	44.8825
0.00360994	45.0119
0.00363078	45.1416
0.00365174	45.2717
0.00367282	45.4022
0.00369403	45.5331
0.00371535	45.6643
0.0037368	45.7959
0.00375837	45.9279
0.00378007	46.0603
0.00380189	46.1931
0.00382384	46.3262
0.00384592	46.4598
0.00386812	46.5937
0.00389045	46.728
0.00391291	46.8627
0.0039355	46.9977
0.00395822	47.1332
0.00398107	47.2691
0.00400405	47.4053
0.00402717	47.542
0.00405042	47.679
0.0040738	47.8164
0.00409732	47.9542
0.00412098	48.0925
0.00414477	48.2311
0.00416869	48.3701
0.00419276	48.5095
0.00421697	48.6493
0.00424131	48.7896
0.0042658	48.9302
0.00429042	49.0712
0.00431519	49.2127
0.0043401	49.3545
0.00436516	49.4968
0.00439036	49.6395
0.0044157	49.7825
0.0044412	49.926
0.00446684	50.0699
0.00449262	50.2143
0.00451856	50.359
0.00454465	50.5041
0.00457088	50.6497
0.00459727	50.7957
0.00462381	50.9421
0.0046505	51.089
0.00467735	51.2362
0.00470435	51.3839
0.00473151	51.532
0.00475883	51.6805
0.0047863	51.8295
0.00481393	51.9789
0.00484172	52.1287
0.00486968	52.279
0.00489779	52.4297
0.00492606	52.5808
0.0049545	52.7323
0.0049831	52.8843
0.00501187	53.0368
0.00504081	53.1896
0.00506991	53.3429
0.00509918	53.4967
0.00512861	53.6509
0.00515822	53.8055
0.005188	53.9606
0.00521795	54.1162
0.00524807	54.2721
0.00527837	54.4286
0.00530884	54.5785
0.00533949	54.7122
0.00537032	54.8462
0.00540132	54.9804
0.0054325	55.1149
0.00546387	55.2497
0.00549541	55.3846
0.00552713	55.5199
0.00555904	55.6554
0.00559114	55.7911
0.00562341	55.9271
0.00565588	56.0634
0.00568853	56.1999
0.00572137	56.3366
0.0057544	56.4736
0.00578762	56.6109
0.00582103	56.7484
0.00585464	56.8861
0.00588844	57.0241
0.00592243	57.1624
0.00595662	57.3009
0.00599101	57.4396
0.0060256	57.5786
0.00606038	57.7178
0.00609537	57.8573
0.00613056	57.997
0.00616595	58.137
0.00620155	58.2772
0.00623735	58.4176
0.00627336	58.5583
0.00630957	58.6992
0.006346	58.8404
0.00638263	58.9818
0.00641948	59.1234
0.00645654	59.2653
0.00649382	59.4074
0.00653131	59.5497
0.00656901	59.6923
0.00660693	59.8351
0.00664508	59.9782
0.00668344	60.1214
0.00672202	60.2649
0.00676083	60.4087
0.00679986	60.5526
0.00683912	60.6968
0.0068786	60.8412
0.00691831	60.9859
0.00695825	61.1307
0.00699842	61.2758
0.00703882	61.4211
0.00707946	61.5667
0.00712033	61.7124
0.00716143	61.8584
0.00720278	62.0046
0.00724436	62.151
0.00728618	62.2976
0.00732825	62.4444
0.00737055	62.5914
0.0074131	62.7387
0.0074559	62.8861
0.00749894	63.0338
0.00754223	63.1817
0.00758578	63.3298
0.00762957	63.478
0.00767361	63.6265
0.00771792	63.7752
0.00776247	63.9241
0.00780728	64.0732
0.00785236	64.2224
0.00789769	64.3719
0.00794328	64.5216
0.00798914	64.6714
0.00803526	64.8215
0.00808165	64.9717
0.00812831	65.1221
0.00817523	65.2727
0.00822243	65.4235
0.0082699	65.5745
0.00831764	65.7256
0.00836566	65.8769
0.00841395	66.0284
0.00846253	66.1801
0.00851138	66.3319
0.00856052	66.4839
0.00860994	66.6361
0.00865964	66.7885
0.00870964	66.941
0.00875992	67.0936
0.00881049	67.2465
0.00886135	67.3995
0.00891251	67.5526
0.00896396	67.7059
0.00901571	67.8593
0.00906776	68.0129
0.00912011	68.1667
0.00917276	68.3205
0.00922571	68.4746
0.00927897	68.6287
0.00933254	68.783
0.00938642	68.9374
0.00944061	69.092
0.00949511	69.2467
0.00954993	69.4015
0.00960506	69.5565
0.00966051	69.7115
0.00971628	69.8667
0.00977237	70.022
0.00982879	70.1774
0.00988553	70.3329
0.0099426	70.4885
0.01	70.6443
0.0100577	70.8001
0.0101158	70.956
0.0101742	71.1121
0.0102329	71.2682
0.010292	71.4244
0.0103514	71.5807
0.0104112	71.7371
0.0104713	71.8935
0.0105317	72.0501
0.0105925	72.2067
0.0106537	72.3634
0.0107152	72.5201
0.0107771	72.677
0.0108393	72.8338
0.0109018	72.9908
0.0109648	73.1478
0.0110281	73.3048
0.0110917	73.4619
0.0111558	73.619
0.0112202	73.7762
0.011285	73.9334
0.0113501	74.0906
0.0114156	74.2479
0.0114815	74.4052
0.0115478	74.5625
0.0116145	74.7198
0.0116815	74.8772
0.011749	75.0345
0.0118168	75.1919
0.011885	75.3493
0.0119536	75.5066
0.0120226	75.664
0.0120921	75.8213
0.0121619	75.9786
0.0122321	76.1359
0.0123027	76.2932
0.0123737	76.4505
0.0124451	76.6077
0.012517	76.7649
0.0125893	76.922
0.0126619	77.0791
0.012735	77.2362
0.0128086	77.3932
0.0128825	77.5501
0.0129569	77.7069
0.0130317	77.8637
0.0131069	78.0205
0.0131826	78.1771
0.0132587	78.3337
0.0133352	78.4901
0.0134122	78.6465
0.0134896	78.8028
0.0135675	78.959
0.0136458	79.115
0.0137246	79.271
0.0138038	79.4268
0.0138835	79.5825
0.0139637	79.7381
0.0140443	79.8935
0.0141254	80.0488
0.0142069	80.2039
0.0142889	80.3589
0.0143714	80.5138
0.0144544	80.6684
0.0145378	80.8229
0.0146218	80.9773
0.0147062	81.1314
0.0147911	81.2854
0.0148765	81.4391
0.0149624	81.5927
0.0150487	81.7461
0.0151356	81.8992
0.015223	82.0521
0.0153109	82.2049
0.0153993	82.3573
0.0154882	82.5096
0.0155776	82.6616
0.0156675	82.8133
0.015758	82.9648
0.0158489	83.116
0.0159404	83.267
0.0160325	83.4177
0.016125	83.5681
0.0162181	83.7182
0.0163117	83.868
0.0164059	84.0176
0.0165006	84.1668
0.0165959	84.3157
0.0166917	84.4642
0.016788	84.6125
0.016885	84.7604
0.0169824	84.908
0.0170805	85.0552
0.0171791	85.202
0.0172783	85.3485
0.017378	85.4946
0.0174783	85.6404
0.0175792	85.7857
0.0176807	85.9307
0.0177828	86.0752
0.0178855	86.2193
0.0179887	86.3631
0.0180926	86.5063
0.018197	86.6492
0.0183021	86.7916
0.0184077	86.9336
0.018514	87.0751
0.0186209	87.2161
0.0187284	87.3567
0.0188365	87.4968
0.0189452	87.6364
0.0190546	87.7755
0.0191646	87.9141
0.0192752	88.0522
0.0193865	88.1897
0.0194984	88.3268
0.019611	88.4633
0.0197242	88.5992
0.0198381	88.7346
0.0199526	88.8694
0.0200678	89.0037
0.0201837	89.1373
0.0203002	89.2704
0.0204174	89.4029
0.0205353	89.5348
0.0206538	89.666
0.020773	89.7967
0.020893	89.9267
0.0210136	90.056
0.0211349	90.1847
0.0212569	90.3128
0.0213796	90.4401
0.021503	90.5668
0.0216272	90.6928
0.021752	90.8181
0.0218776	90.9427
0.0220039	91.0666
0.0221309	91.1898
0.0222587	91.3122
0.0223872	91.4339
0.0225165	91.5548
0.0226464	91.675
0.0227772	91.7944
0.0229087	91.913
0.0230409	92.0308
0.0231739	92.1479
0.0233077	92.2641
0.0234423	92.3795
0.0235776	92.494
0.0237137	92.6078
0.0238506	92.7207
0.0239883	92.8327
0.0241268	92.9439
0.0242661	93.0541
0.0244062	93.1635
0.0245471	93.272
0.0246888	93.3796
0.0248313	93.4863
0.0249747	93.5921
0.0251189	93.6969
0.0252639	93.8008
0.0254097	93.9037
0.0255564	94.0057
0.025704	94.1067
0.0258523	94.2067
0.0260016	94.3057
0.0261517	94.4037
0.0263027	94.5007
0.0264545	94.5966
0.0266073	94.6916
0.0267609	94.7855
0.0269153	94.8783
0.0270707	94.9701
0.027227	95.0608
0.0273842	95.1504
0.0275423	95.2389
0.0277013	95.3264
0.0278612	95.4127
0.0280221	95.4979
0.0281838	95.5819
0.0283465	95.6648
0.0285102	95.7466
0.0286748	95.8272
0.0288403	95.9067
0.0290068	95.9849
0.0291743	96.062
0.0293427	96.1379
0.0295121	96.2125
0.0296825	96.286
0.0298538	96.3582
0.0300262	96.4292
0.0301995	96.4989
0.0303739	96.5674
0.0305492	96.6346
0.0307256	96.7005
0.030903	96.7651
0.0310814	96.8285
0.0312608	96.8905
0.0314413	96.9513
0.0316228	97.0107
0.0318053	97.0687
0.031989	97.1255
0.0321736	97.1809
0.0323594	97.2349
0.0325462	97.2876
0.0327341	97.3388
0.032923	97.3887
0.0331131	97.4372
0.0333043	97.4843
0.0334965	97.53
0.0336899	97.5743
0.0338844	97.6171
0.03408	97.6585
0.0342768	97.6985
0.0344747	97.737
0.0346737	97.774
0.0348739	97.8096
0.0350752	97.8437
0.0352777	97.8763
0.0354813	97.9074
0.0356862	97.937
0.0358922	97.9651
0.0360994	97.9917
0.0363078	98.0167
0.0365174	98.0402
0.0367282	98.0622
0.0369403	98.0826
0.0371535	98.1015
0.037368	98.1188
0.0375837	98.1346
0.0378007	98.1487
0.0380189	98.1613
0.0382384	98.1723
0.0384592	98.1817
0.0386812	98.1895
0.0389045	98.1957
0.0391291	98.2002
0.039355	98.2032
0.0395822	98.2045
0.0398107	98.2042
0.0400405	98.2022
0.0402717	98.1986
0.0405042	98.1934
0.040738	98.1865
0.0409732	98.1779
0.0412098	98.1677
0.0414477	98.1558
0.0416869	98.1422
0.0419276	98.1269
0.0421697	98.11
0.0424131	98.0914
0.042658	98.071
0.0429042	98.049
0.0431519	98.0253
0.043401	97.9998
0.0436516	97.9727
0.0439036	97.9438
0.044157	97.9132
0.044412	97.8809
0.0446684	97.8469
0.0449262	97.8112
0.0451856	97.7737
0.0454465	97.7345
0.0457088	97.6936
0.0459727	97.6509
0.0462381	97.6065
0.046505	97.5603
0.0467735	97.5124
0.0470435	97.4628
0.0473151	97.4114
0.0475883	97.3583
0.047863	97.3034
0.0481393	97.2468
0.0484172	97.1884
0.0486968	97.1283
0.0489779	97.0664
0.0492606	97.0028
0.049545	96.9374
0.049831	96.8703
0.0501187	96.8014
0.0504081	96.7308
0.0506991	96.6584
0.0509918	96.5843
0.0512861	96.5084
0.0515822	96.4308
0.05188	96.3514
0.0521795	96.2703
0.0524807	96.1875
0.0527837	96.1029
0.0530884	96.0166
0.0533949	95.9286
0.0537032	95.8388
0.0540132	95.7473
0.054325	95.6541
0.0546387	95.5591
0.0549541	95.4625
0.0552713	95.3641
0.0555904	95.264
0.0559114	95.1622
0.0562341	95.0587
0.0565588	94.9535
0.0568853	94.8466
0.0572137	94.7381
0.057544	94.6278
0.0578762	94.5159
0.0582103	94.4023
0.0585464	94.287
0.0588844	94.17
0.0592243	94.0514
0.0595662	93.9312
0.0599101	93.8093
0.060256	93.6858
0.0606038	93.5606
0.0609537	93.4339
0.0613056	93.3055
0.0616595	93.1755
0.0620155	93.0439
0.0623735	92.9107
0.0627336	92.7759
0.0630957	92.6395
0.06346	92.5016
0.0638263	92.3621
0.0641948	92.2211
0.0645654	92.0785
0.0649382	91.9344
0.0653131	91.7888
0.0656901	91.6416
0.0660693	91.493
0.0664508	91.3428
0.0668344	91.1912
0.0672202	91.0381
0.0676083	90.8835
0.0679986	90.7275
0.0683912	90.57
0.068786	90.4111
0.0691831	90.2507
0.0695825	90.089
0.0699842	89.9259
0.0703882	89.7613
0.0707946	89.5954
0.0712033	89.4281
0.0716143	89.2595
0.0720278	89.0896
0.0724436	88.9183
0.0728618	88.7457
0.0732825	88.5717
0.0737055	88.3965
0.074131	88.22
0.074559	88.0423
0.0749894	87.8633
0.0754223	87.6831
0.0758578	87.5016
0.0762957	87.3189
0.0767361	87.135
0.0771792	86.95
0.0776247	86.7637
0.0780728	86.5764
0.0785236	86.3878
0.0789769	86.1982
0.0794328	86.0074
0.0798914	85.8155
0.0803526	85.6226
0.0808165	85.4285
0.0812831	85.2335
0.0817523	85.0373
0.0822243	84.8402
0.082699	84.642
0.0831764	84.4429
0.0836566	84.2427
0.0841395	84.0416
0.0846253	83.8396
0.0851138	83.6366
0.0856052	83.4327
0.0860994	83.2279
0.0865964	83.0222
0.0870964	82.8156
0.0875992	82.6082
0.0881049	82.3999
0.0886135	82.1908
0.0891251	81.9809
0.0896396	81.7702
0.0901571	81.5587
0.0906776	81.3465
0.0912011	81.1335
0.0917276	80.9198
0.0922571	80.7054
0.0927897	80.4903
0.0933254	80.2745
0.0938642	80.058
0.0944061	79.8409
0.0949511	79.6231
0.0954993	79.4048
0.0960506	79.1858
0.0966051	78.9663
0.0971628	78.7461
0.0977237	78.5255
0.0982879	78.3042
0.0988553	78.0825
0.099426	77.8603
0.1	77.6376
0.100577	77.4144
0.101158	77.1907
0.101742	76.9666
0.102329	76.7421
0.10292	76.5172
0.103514	76.2919
0.104112	76.0662
0.104713	75.8401
0.105317	75.6137
0.105925	75.387
0.106537	75.1599
0.107152	74.9326
0.107771	74.705
0.108393	74.4771
0.109018	74.2489
0.109648	74.0205
0.110281	73.7919
0.110917	73.5631
0.111558	73.3341
0.112202	73.1049
0.11285	72.8755
0.113501	72.646
0.114156	72.4164
0.114815	72.1866
0.115478	71.9567
0.116145	71.7268
0.116815	71.4967
0.11749	71.2666
0.118168	71.0365
0.11885	70.8063
0.119536	70.5761
0.120226	70.3458
0.120921	70.1156
0.121619	69.8854
0.122321	69.6553
0.123027	69.4251
0.123737	69.1951
0.124451	68.9651
0.12517	68.7352
0.125893	68.5054
0.126619	68.2757
0.12735	68.0461
0.128086	67.8166
0.128825	67.5873
0.129569	67.3582
0.130317	67.1292
0.131069	66.9004
0.131826	66.6718
0.132587	66.4434
0.133352	66.2152
0.134122	65.9872
0.134896	65.7594
0.135675	65.532
0.136458	65.3047
0.137246	65.0778
0.138038	64.8511
0.138835	64.6247
0.139637	64.3986
0.140443	64.1728
0.141254	63.9473
0.142069	63.7221
0.142889	63.4973
0.143714	63.2728
0.144544	63.0487
0.145378	62.825
0.146218	62.6016
0.147062	62.3786
0.147911	62.156
0.148765	61.9338
0.149624	61.7119
0.150487	61.4905
0.151356	61.2696
0.15223	61.049
0.153109	60.8289
0.153993	60.6092
0.154882	60.39
0.155776	60.1713
0.156675	59.953
0.15758	59.7351
0.158489	59.5178
0.159404	59.3009
0.160325	59.0846
0.16125	58.8687
0.162181	58.6533
0.163117	58.4385
0.164059	58.2241
0.165006	58.0103
0.165959	57.797
0.166917	57.5842
0.16788	57.372
0.16885	57.1603
0.169824	56.9491
0.170805	56.7386
0.171791	56.5285
0.172783	56.319
0.17378	56.1101
0.174783	55.9018
0.175792	55.694
0.176807	55.4868
0.177828	55.2801
0.178855	55.0741
0.179887	54.8686
0.180926	54.6638
0.18197	54.4595
0.183021	54.2558
0.184077	54.0527
0.18514	53.8503
0.186209	53.6484
0.187284	53.4471
0.188365	53.2465
0.189452	53.0464
0.190546	52.847
0.191646	52.6482
0.192752	52.45
0.193865	52.2524
0.194984	52.0555
0.19611	51.8592
0.197242	51.6635
0.198381	51.4684
0.199526	51.2739
0.200678	51.0801
0.201837	50.887
0.203002	50.6944
0.204174	50.5025
0.205353	50.3112
0.206538	50.1206
0.20773	49.9305
0.20893	49.7412
0.210136	49.5524
0.211349	49.3643
0.212569	49.1769
0.213796	48.99
0.21503	48.8038
0.216272	48.6183
0.21752	48.4334
0.218776	48.2491
0.220039	48.0655
0.221309	47.8825
0.222587	47.7001
0.223872	47.5184
0.225165	47.3373
0.226464	47.1569
0.227772	46.977
0.229087	46.7979
0.230409	46.6193
0.231739	46.4414
0.233077	46.2641
0.234423	46.0875
0.235776	45.9115
0.237137	45.7361
0.238506	45.5614
0.239883	45.3872
0.241268	45.2137
0.242661	45.0409
0.244062	44.8686
0.245471	44.697
0.246888	44.526
0.248313	44.3556
0.249747	44.1859
0.251189	44.0168
0.252639	43.8482
0.254097	43.6803
0.255564	43.513
0.25704	43.3464
0.258523	43.1803
0.260016	43.0148
0.261517	42.85
0.263027	42.6858
0.264545	42.5221
0.266073	42.3591
0.267609	42.1966
0.269153	42.0348
0.270707	41.8736
0.27227	41.7129
0.273842	41.5529
0.275423	41.3934
0.277013	41.2345
0.278612	41.0762
0.280221	40.9185
0.281838	40.7614
0.283465	40.6049
0.285102	40.4489
0.286748	40.2935
0.288403	40.1387
0.290068	39.9845
0.291743	39.8308
0.293427	39.6777
0.295121	39.5252
0.296825	39.3732
0.298538	39.2218
0.300262	39.071
0.301995	38.9207
0.303739	38.771
0.305492	38.6218
0.307256	38.4732
0.30903	38.3251
0.310814	38.1776
0.312608	38.0306
0.314413	37.8841
0.316228	37.7382
0.318053	37.5929
0.31989	37.448
0.321736	37.3037
0.323594	37.16
0.325462	37.0167
0.327341	36.874
0.32923	36.7318
0.331131	36.5902
0.333043	36.449
0.334965	36.3084
0.336899	36.1683
0.338844	36.0287
0.3408	35.8896
0.342768	35.7511
0.344747	35.613
0.346737	35.4754
0.348739	35.3384
0.350752	35.2018
0.352777	35.0658
0.354813	34.9302
0.356862	34.7951
0.358922	34.6605
0.360994	34.5265
0.363078	34.3929
0.365174	34.2597
0.367282	34.1271
0.369403	33.995
0.371535	33.8633
0.37368	33.7321
0.375837	33.6014
0.378007	33.4711
0.380189	33.3413
0.382384	33.212
0.384592	33.0832
0.386812	32.9548
0.389045	32.8269
0.391291	32.6994
0.39355	32.5724
0.395822	32.4459
0.398107	32.3198
0.400405	32.1942
0.402717	32.069
0.405042	31.9442
0.40738	31.82
0.409732	31.6961
0.412098	31.5727
0.414477	31.4497
0.416869	31.3272
0.419276	31.2051
0.421697	31.0835
0.424131	30.9623
0.42658	30.8415
0.429042	30.7211
0.431519	30.6012
0.43401	30.4817
0.436516	30.3626
0.439036	30.244
0.44157	30.1257
0.44412	30.0079
0.446684	29.8905
0.449262	29.7735
0.451856	29.657
0.454465	29.5408
0.457088	29.4251
0.459727	29.3097
0.462381	29.1948
0.46505	29.0803
0.467735	28.9662
0.470435	28.8524
0.473151	28.7391
0.475883	28.6262
0.47863	28.5137
0.481393	28.4016
0.484172	28.2898
0.486968	28.1785
0.489779	28.0675
0.492606	27.957
0.49545	27.8468
0.49831	27.737
0.501187	27.6276
0.504081	27.5186
0.506991	27.41
0.509918	27.3017
0.512861	27.1938
0.515822	27.0863
0.5188	26.9792
0.521795	26.8725
0.524807	26.7661
0.527837	26.6601
0.530884	26.5545
0.533949	26.4492
0.537032	26.3443
0.540132	26.2398
0.54325	26.1356
0.546387	26.0318
0.549541	25.9284
0.552713	25.8253
0.555904	25.7226
0.559114	25.6202
0.562341	25.5182
0.565588	25.4166
0.568853	25.3153
0.572137	25.2144
0.57544	25.1138
0.578762	25.0135
0.582103	24.9136
0.585464	24.8141
0.588844	24.7149
0.592243	24.6161
0.595662	24.5176
0.599101	24.4194
0.60256	24.3216
0.606038	24.2241
0.609537	24.127
0.613056	24.0302
