Stopping power dEdx from Ionisation for kaon+ Z = 0 in G4_TISSUE_SOFT_ICRP, process name: hIoni
E [MeV]	dEdx [MeV/mm]
0.001	23.8164
0.00100577	23.8851
0.00101158	23.9539
0.00101742	24.023
0.00102329	24.0922
0.0010292	24.1617
0.00103514	24.2313
0.00104112	24.3012
0.00104713	24.3712
0.00105317	24.4415
0.00105925	24.5119
0.00106537	24.5826
0.00107152	24.6534
0.00107771	24.7245
0.00108393	24.7957
0.00109018	24.8672
0.00109648	24.9389
0.00110281	25.0108
0.00110917	25.0829
0.00111558	25.1552
0.00112202	25.2277
0.0011285	25.3004
0.00113501	25.3733
0.00114156	25.4464
0.00114815	25.5198
0.00115478	25.5933
0.00116145	25.6671
0.00116815	25.7411
0.0011749	25.8153
0.00118168	25.8897
0.0011885	25.9643
0.00119536	26.0392
0.00120226	26.1142
0.00120921	26.1895
0.00121619	26.265
0.00122321	26.3407
0.00123027	26.4166
0.00123737	26.4927
0.00124451	26.5691
0.0012517	26.6457
0.00125893	26.7225
0.00126619	26.7995
0.0012735	26.8768
0.00128086	26.9542
0.00128825	27.0319
0.00129569	27.1098
0.00130317	27.188
0.00131069	27.2663
0.00131826	27.3449
0.00132587	27.4238
0.00133352	27.5028
0.00134122	27.5821
0.00134896	27.6616
0.00135675	27.7413
0.00136458	27.8213
0.00137246	27.9015
0.00138038	27.9819
0.00138835	28.0625
0.00139637	28.1434
0.00140443	28.2245
0.00141254	28.3059
0.00142069	28.3875
0.00142889	28.4693
0.00143714	28.5514
0.00144544	28.6337
0.00145378	28.7162
0.00146218	28.799
0.00147062	28.882
0.00147911	28.9652
0.00148765	29.0487
0.00149624	29.1324
0.00150487	29.2164
0.00151356	29.3006
0.0015223	29.3851
0.00153109	29.4698
0.00153993	29.5547
0.00154882	29.6399
0.00155776	29.7253
0.00156675	29.811
0.0015758	29.897
0.00158489	29.9831
0.00159404	30.0696
0.00160325	30.1562
0.0016125	30.2431
0.00162181	30.3303
0.00163117	30.4177
0.00164059	30.5054
0.00165006	30.5933
0.00165959	30.6815
0.00166917	30.77
0.0016788	30.8587
0.0016885	30.9476
0.00169824	31.0368
0.00170805	31.1263
0.00171791	31.216
0.00172783	31.306
0.0017378	31.3962
0.00174783	31.4867
0.00175792	31.5774
0.00176807	31.6685
0.00177828	31.7597
0.00178855	31.8513
0.00179887	31.9431
0.00180926	32.0352
0.0018197	32.1275
0.00183021	32.2201
0.00184077	32.313
0.0018514	32.4061
0.00186209	32.4995
0.00187284	32.5932
0.00188365	32.6871
0.00189452	32.7814
0.00190546	32.8758
0.00191646	32.9706
0.00192752	33.0656
0.00193865	33.161
0.00194984	33.2565
0.0019611	33.3524
0.00197242	33.4485
0.00198381	33.5449
0.00199526	33.6416
0.00200678	33.7386
0.00201837	33.8358
0.00203002	33.9334
0.00204174	34.0312
0.00205353	34.1293
0.00206538	34.2276
0.0020773	34.3263
0.0020893	34.4252
0.00210136	34.5245
0.00211349	34.624
0.00212569	34.7238
0.00213796	34.8239
0.0021503	34.9242
0.00216272	35.0249
0.0021752	35.1259
0.00218776	35.2271
0.00220039	35.3286
0.00221309	35.4305
0.00222587	35.5326
0.00223872	35.635
0.00225165	35.7377
0.00226464	35.8407
0.00227772	35.944
0.00229087	36.0477
0.00230409	36.1516
0.00231739	36.2558
0.00233077	36.3603
0.00234423	36.4651
0.00235776	36.5702
0.00237137	36.6756
0.00238506	36.7813
0.00239883	36.8873
0.00241268	36.9936
0.00242661	37.1003
0.00244062	37.2072
0.00245471	37.3144
0.00246888	37.422
0.00248313	37.5299
0.00249747	37.638
0.00251189	37.7465
0.00252639	37.8553
0.00254097	37.9644
0.00255564	38.0739
0.0025704	38.1836
0.00258523	38.2937
0.00260016	38.404
0.00261517	38.5147
0.00263027	38.6258
0.00264545	38.7371
0.00266073	38.8487
0.00267609	38.9607
0.00269153	39.073
0.00270707	39.1856
0.0027227	39.2986
0.00273842	39.4119
0.00275423	39.5255
0.00277013	39.6394
0.00278612	39.7536
0.00280221	39.8682
0.00281838	39.9831
0.00283465	40.0984
0.00285102	40.214
0.00286748	40.3299
0.00288403	40.4461
0.00290068	40.5627
0.00291743	40.6796
0.00293427	40.7969
0.00295121	40.9145
0.00296825	41.0324
0.00298538	41.1507
0.00300262	41.2693
0.00301995	41.3882
0.00303739	41.5075
0.00305492	41.6272
0.00307256	41.7472
0.0030903	41.8675
0.00310814	41.9882
0.00312608	42.1092
0.00314413	42.2306
0.00316228	42.3523
0.00318053	42.4744
0.0031989	42.5968
0.00321736	42.7196
0.00323594	42.8427
0.00325462	42.9662
0.00327341	43.09
0.0032923	43.2142
0.00331131	43.3388
0.00333043	43.4637
0.00334965	43.589
0.00336899	43.7146
0.00338844	43.8406
0.003408	43.967
0.00342768	44.0937
0.00344747	44.2208
0.00346737	44.3483
0.00348739	44.4761
0.00350752	44.6043
0.00352777	44.7329
0.00354813	44.8618
0.00356862	44.9911
0.00358922	45.1208
0.00360994	45.2509
0.00363078	45.3813
0.00365174	45.5121
0.00367282	45.6433
0.00369403	45.7749
0.00371535	45.9068
0.0037368	46.0391
0.00375837	46.1718
0.00378007	46.3049
0.00380189	46.4384
0.00382384	46.5722
0.00384592	46.7065
0.00386812	46.8411
0.00389045	46.9761
0.00391291	47.1115
0.0039355	47.2473
0.00395822	47.3835
0.00398107	47.5201
0.00400405	47.657
0.00402717	47.7944
0.00405042	47.9322
0.0040738	48.0703
0.00409732	48.2089
0.00412098	48.3478
0.00414477	48.4872
0.00416869	48.6269
0.00419276	48.7671
0.00421697	48.9077
0.00424131	49.0486
0.0042658	49.19
0.00429042	49.3318
0.00431519	49.474
0.0043401	49.6166
0.00436516	49.7596
0.00439036	49.903
0.0044157	50.0469
0.0044412	50.1911
0.00446684	50.3358
0.00449262	50.4809
0.00451856	50.6264
0.00454465	50.7723
0.00457088	50.9187
0.00459727	51.0654
0.00462381	51.2126
0.0046505	51.3602
0.00467735	51.5083
0.00470435	51.6567
0.00473151	51.8056
0.00475883	51.955
0.0047863	52.1047
0.00481393	52.2549
0.00484172	52.4055
0.00486968	52.5566
0.00489779	52.7081
0.00492606	52.86
0.0049545	53.0123
0.0049831	53.1651
0.00501187	53.3184
0.00504081	53.4721
0.00506991	53.6262
0.00509918	53.7808
0.00512861	53.9358
0.00515822	54.0912
0.005188	54.2472
0.00521795	54.4035
0.00524807	54.5603
0.00527837	54.7176
0.00530884	54.8693
0.00533949	55.0069
0.00537032	55.1447
0.00540132	55.2829
0.0054325	55.4213
0.00546387	55.56
0.00549541	55.699
0.00552713	55.8383
0.00555904	55.9778
0.00559114	56.1176
0.00562341	56.2577
0.00565588	56.3981
0.00568853	56.5388
0.00572137	56.6797
0.0057544	56.8209
0.00578762	56.9624
0.00582103	57.1042
0.00585464	57.2463
0.00588844	57.3886
0.00592243	57.5312
0.00595662	57.6741
0.00599101	57.8172
0.0060256	57.9607
0.00606038	58.1044
0.00609537	58.2484
0.00613056	58.3926
0.00616595	58.5371
0.00620155	58.6819
0.00623735	58.827
0.00627336	58.9724
0.00630957	59.118
0.006346	59.2639
0.00638263	59.41
0.00641948	59.5564
0.00645654	59.7031
0.00649382	59.8501
0.00653131	59.9973
0.00656901	60.1448
0.00660693	60.2926
0.00664508	60.4406
0.00668344	60.5889
0.00672202	60.7375
0.00676083	60.8863
0.00679986	61.0354
0.00683912	61.1847
0.0068786	61.3344
0.00691831	61.4842
0.00695825	61.6344
0.00699842	61.7847
0.00703882	61.9354
0.00707946	62.0863
0.00712033	62.2375
0.00716143	62.3889
0.00720278	62.5406
0.00724436	62.6925
0.00728618	62.8447
0.00732825	62.9971
0.00737055	63.1498
0.0074131	63.3027
0.0074559	63.4559
0.00749894	63.6093
0.00754223	63.763
0.00758578	63.9169
0.00762957	64.0711
0.00767361	64.2255
0.00771792	64.3801
0.00776247	64.535
0.00780728	64.6901
0.00785236	64.8455
0.00789769	65.0011
0.00794328	65.157
0.00798914	65.313
0.00803526	65.4694
0.00808165	65.6259
0.00812831	65.7827
0.00817523	65.9397
0.00822243	66.0969
0.0082699	66.2544
0.00831764	66.412
0.00836566	66.57
0.00841395	66.7281
0.00846253	66.8864
0.00851138	67.045
0.00856052	67.2038
0.00860994	67.3628
0.00865964	67.522
0.00870964	67.6814
0.00875992	67.8411
0.00881049	68.0009
0.00886135	68.161
0.00891251	68.3213
0.00896396	68.4817
0.00901571	68.6424
0.00906776	68.8033
0.00912011	68.9643
0.00917276	69.1256
0.00922571	69.2871
0.00927897	69.4487
0.00933254	69.6106
0.00938642	69.7726
0.00944061	69.9348
0.00949511	70.0972
0.00954993	70.2598
0.00960506	70.4226
0.00966051	70.5856
0.00971628	70.7487
0.00977237	70.912
0.00982879	71.0755
0.00988553	71.2391
0.0099426	71.4029
0.01	71.5669
0.0100577	71.731
0.0101158	71.8953
0.0101742	72.0598
0.0102329	72.2244
0.010292	72.3892
0.0103514	72.5541
0.0104112	72.7191
0.0104713	72.8843
0.0105317	73.0497
0.0105925	73.2152
0.0106537	73.3808
0.0107152	73.5466
0.0107771	73.7125
0.0108393	73.8785
0.0109018	74.0447
0.0109648	74.2109
0.0110281	74.3773
0.0110917	74.5439
0.0111558	74.7105
0.0112202	74.8772
0.011285	75.0441
0.0113501	75.211
0.0114156	75.3781
0.0114815	75.5453
0.0115478	75.7125
0.0116145	75.8799
0.0116815	76.0473
0.011749	76.2148
0.0118168	76.3824
0.011885	76.5501
0.0119536	76.7179
0.0120226	76.8857
0.0120921	77.0536
0.0121619	77.2216
0.0122321	77.3897
0.0123027	77.5578
0.0123737	77.7259
0.0124451	77.8941
0.012517	78.0624
0.0125893	78.2307
0.0126619	78.399
0.012735	78.5674
0.0128086	78.7358
0.0128825	78.9042
0.0129569	79.0727
0.0130317	79.2412
0.0131069	79.4097
0.0131826	79.5782
0.0132587	79.7467
0.0133352	79.9152
0.0134122	80.0838
0.0134896	80.2523
0.0135675	80.4208
0.0136458	80.5893
0.0137246	80.7578
0.0138038	80.9262
0.0138835	81.0947
0.0139637	81.2631
0.0140443	81.4315
0.0141254	81.5998
0.0142069	81.7681
0.0142889	81.9363
0.0143714	82.1045
0.0144544	82.2727
0.0145378	82.4407
0.0146218	82.6087
0.0147062	82.7767
0.0147911	82.9445
0.0148765	83.1123
0.0149624	83.28
0.0150487	83.4476
0.0151356	83.6151
0.015223	83.7825
0.0153109	83.9497
0.0153993	84.1169
0.0154882	84.284
0.0155776	84.4509
0.0156675	84.6177
0.015758	84.7844
0.0158489	84.9509
0.0159404	85.1173
0.0160325	85.2835
0.016125	85.4496
0.0162181	85.6155
0.0163117	85.7813
0.0164059	85.9468
0.0165006	86.1122
0.0165959	86.2774
0.0166917	86.4425
0.016788	86.6073
0.016885	86.7719
0.0169824	86.9363
0.0170805	87.1005
0.0171791	87.2645
0.0172783	87.4283
0.017378	87.5918
0.0174783	87.7551
0.0175792	87.9181
0.0176807	88.0809
0.0177828	88.2435
0.0178855	88.4057
0.0179887	88.5677
0.0180926	88.7295
0.018197	88.8909
0.0183021	89.0521
0.0184077	89.2129
0.018514	89.3735
0.0186209	89.5337
0.0187284	89.6937
0.0188365	89.8533
0.0189452	90.0125
0.0190546	90.1715
0.0191646	90.3301
0.0192752	90.4884
0.0193865	90.6463
0.0194984	90.8038
0.019611	90.961
0.0197242	91.1177
0.0198381	91.2742
0.0199526	91.4302
0.0200678	91.5858
0.0201837	91.741
0.0203002	91.8958
0.0204174	92.0502
0.0205353	92.2042
0.0206538	92.3577
0.020773	92.5108
0.020893	92.6634
0.0210136	92.8156
0.0211349	92.9673
0.0212569	93.1098
0.0213796	93.2419
0.021503	93.3733
0.0216272	93.504
0.021752	93.6339
0.0218776	93.7631
0.0220039	93.8916
0.0221309	94.0194
0.0222587	94.1464
0.0223872	94.2726
0.0225165	94.398
0.0226464	94.5227
0.0227772	94.6465
0.0229087	94.7696
0.0230409	94.8918
0.0231739	95.0132
0.0233077	95.1338
0.0234423	95.2536
0.0235776	95.3724
0.0237137	95.4904
0.0238506	95.6076
0.0239883	95.7238
0.0241268	95.8392
0.0242661	95.9536
0.0244062	96.0671
0.0245471	96.1797
0.0246888	96.2914
0.0248313	96.4021
0.0249747	96.5119
0.0251189	96.6206
0.0252639	96.7285
0.0254097	96.8353
0.0255564	96.9411
0.025704	97.0459
0.0258523	97.1497
0.0260016	97.2525
0.0261517	97.3542
0.0263027	97.4549
0.0264545	97.5545
0.0266073	97.653
0.0267609	97.7505
0.0269153	97.8469
0.0270707	97.9421
0.027227	98.0363
0.0273842	98.1293
0.0275423	98.2212
0.0277013	98.3119
0.0278612	98.4015
0.0280221	98.49
0.0281838	98.5772
0.0283465	98.6633
0.0285102	98.7482
0.0286748	98.8318
0.0288403	98.9143
0.0290068	98.9955
0.0291743	99.0755
0.0293427	99.1542
0.0295121	99.2317
0.0296825	99.3079
0.0298538	99.3829
0.0300262	99.4565
0.0301995	99.5289
0.0303739	99.5999
0.0305492	99.6696
0.0307256	99.738
0.030903	99.8051
0.0310814	99.8708
0.0312608	99.9352
0.0314413	99.9981
0.0316228	100.06
0.0318053	100.12
0.031989	100.179
0.0321736	100.236
0.0323594	100.292
0.0325462	100.347
0.0327341	100.4
0.032923	100.452
0.0331131	100.502
0.0333043	100.551
0.0334965	100.598
0.0336899	100.644
0.0338844	100.688
0.03408	100.731
0.0342768	100.772
0.0344747	100.812
0.0346737	100.85
0.0348739	100.887
0.0350752	100.922
0.0352777	100.956
0.0354813	100.988
0.0356862	101.019
0.0358922	101.047
0.0360994	101.075
0.0363078	101.101
0.0365174	101.125
0.0367282	101.147
0.0369403	101.168
0.0371535	101.188
0.037368	101.205
0.0375837	101.221
0.0378007	101.236
0.0380189	101.248
0.0382384	101.259
0.0384592	101.269
0.0386812	101.277
0.0389045	101.283
0.0391291	101.287
0.039355	101.29
0.0395822	101.291
0.0398107	101.29
0.0400405	101.287
0.0402717	101.283
0.0405042	101.277
0.040738	101.27
0.0409732	101.26
0.0412098	101.249
0.0414477	101.236
0.0416869	101.222
0.0419276	101.205
0.0421697	101.187
0.0424131	101.167
0.042658	101.145
0.0429042	101.122
0.0431519	101.097
0.043401	101.07
0.0436516	101.041
0.0439036	101.01
0.044157	100.978
0.044412	100.944
0.0446684	100.908
0.0449262	100.87
0.0451856	100.83
0.0454465	100.789
0.0457088	100.745
0.0459727	100.7
0.0462381	100.654
0.046505	100.605
0.0467735	100.554
0.0470435	100.502
0.0473151	100.448
0.0475883	100.392
0.047863	100.334
0.0481393	100.274
0.0484172	100.213
0.0486968	100.149
0.0489779	100.084
0.0492606	100.017
0.049545	99.9483
0.049831	99.8776
0.0501187	99.8051
0.0504081	99.7308
0.0506991	99.6546
0.0509918	99.5767
0.0512861	99.4969
0.0515822	99.4152
0.05188	99.3318
0.0521795	99.2465
0.0524807	99.1594
0.0527837	99.0705
0.0530884	98.9798
0.0533949	98.8872
0.0537032	98.7929
0.0540132	98.6967
0.054325	98.5988
0.0546387	98.499
0.0549541	98.3975
0.0552713	98.2941
0.0555904	98.189
0.0559114	98.0821
0.0562341	97.9734
0.0565588	97.863
0.0568853	97.7507
0.0572137	97.6367
0.057544	97.521
0.0578762	97.4035
0.0582103	97.2843
0.0585464	97.1633
0.0588844	97.0406
0.0592243	96.9162
0.0595662	96.79
0.0599101	96.6621
0.060256	96.5326
0.0606038	96.4013
0.0609537	96.2683
0.0613056	96.1337
0.0616595	95.9974
0.0620155	95.8594
0.0623735	95.7198
0.0627336	95.5785
0.0630957	95.4356
0.06346	95.291
0.0638263	95.1448
0.0641948	94.997
0.0645654	94.8476
0.0649382	94.6967
0.0653131	94.5441
0.0656901	94.39
0.0660693	94.2343
0.0664508	94.077
0.0668344	93.9182
0.0672202	93.7579
0.0676083	93.5961
0.0679986	93.4327
0.0683912	93.2679
0.068786	93.1016
0.0691831	92.9338
0.0695825	92.7645
0.0699842	92.5938
0.0703882	92.4217
0.0707946	92.2481
0.0712033	92.0732
0.0716143	91.8968
0.0720278	91.7191
0.0724436	91.5399
0.0728618	91.3595
0.0732825	91.1777
0.0737055	90.9945
0.074131	90.8101
0.074559	90.6243
0.0749894	90.4373
0.0754223	90.2489
0.0758578	90.0594
0.0762957	89.8685
0.0767361	89.6765
0.0771792	89.4832
0.0776247	89.2888
0.0780728	89.0931
0.0785236	88.8963
0.0789769	88.6984
0.0794328	88.4992
0.0798914	88.299
0.0803526	88.0977
0.0808165	87.8953
0.0812831	87.6918
0.0817523	87.4872
0.0822243	87.2816
0.082699	87.075
0.0831764	86.8673
0.0836566	86.6587
0.0841395	86.4491
0.0846253	86.2385
0.0851138	86.0269
0.0856052	85.8145
0.0860994	85.6011
0.0865964	85.3869
0.0870964	85.1717
0.0875992	84.9557
0.0881049	84.7389
0.0886135	84.5212
0.0891251	84.3027
0.0896396	84.0834
0.0901571	83.8633
0.0906776	83.6425
0.0912011	83.4209
0.0917276	83.1987
0.0922571	82.9756
0.0927897	82.7519
0.0933254	82.5276
0.0938642	82.3025
0.0944061	82.0769
0.0949511	81.8506
0.0954993	81.6236
0.0960506	81.3961
0.0966051	81.1681
0.0971628	80.9394
0.0977237	80.7103
0.0982879	80.4806
0.0988553	80.2504
0.099426	80.0197
0.1	79.7885
0.100577	79.5569
0.101158	79.3249
0.101742	79.0924
0.102329	78.8595
0.10292	78.6262
0.103514	78.3926
0.104112	78.1586
0.104713	77.9243
0.105317	77.6896
0.105925	77.4546
0.106537	77.2194
0.107152	76.9838
0.107771	76.7481
0.108393	76.512
0.109018	76.2758
0.109648	76.0393
0.110281	75.8026
0.110917	75.5658
0.111558	75.3288
0.112202	75.0916
0.11285	74.8544
0.113501	74.6169
0.114156	74.3794
0.114815	74.1418
0.115478	73.9042
0.116145	73.6664
0.116815	73.4287
0.11749	73.1909
0.118168	72.9531
0.11885	72.7152
0.119536	72.4774
0.120226	72.2397
0.120921	72.0019
0.121619	71.7642
0.122321	71.5266
0.123027	71.2891
0.123737	71.0517
0.124451	70.8143
0.12517	70.5771
0.125893	70.3401
0.126619	70.1031
0.12735	69.8664
0.128086	69.6298
0.128825	69.3934
0.129569	69.1572
0.130317	68.9212
0.131069	68.6854
0.131826	68.4498
0.132587	68.2145
0.133352	67.9794
0.134122	67.7446
0.134896	67.5101
0.135675	67.2759
0.136458	67.042
0.137246	66.8083
0.138038	66.575
0.138835	66.3421
0.139637	66.1094
0.140443	65.8771
0.141254	65.6452
0.142069	65.4136
0.142889	65.1825
0.143714	64.9517
0.144544	64.7213
0.145378	64.4913
0.146218	64.2617
0.147062	64.0325
0.147911	63.8038
0.148765	63.5755
0.149624	63.3476
0.150487	63.1202
0.151356	62.8933
0.15223	62.6668
0.153109	62.4408
0.153993	62.2153
0.154882	61.9903
0.155776	61.7658
0.156675	61.5418
0.15758	61.3183
0.158489	61.0953
0.159404	60.8728
0.160325	60.6509
0.16125	60.4295
0.162181	60.2087
0.163117	59.9884
0.164059	59.7686
0.165006	59.5494
0.165959	59.3308
0.166917	59.1127
0.16788	58.8952
0.16885	58.6783
0.169824	58.462
0.170805	58.2462
0.171791	58.0311
0.172783	57.8165
0.17378	57.6026
0.174783	57.3892
0.175792	57.1765
0.176807	56.9643
0.177828	56.7528
0.178855	56.5419
0.179887	56.3316
0.180926	56.122
0.18197	55.9129
0.183021	55.7045
0.184077	55.4968
0.18514	55.2896
0.186209	55.0831
0.187284	54.8773
0.188365	54.6721
0.189452	54.4675
0.190546	54.2636
0.191646	54.0603
0.192752	53.8576
0.193865	53.6557
0.194984	53.4543
0.19611	53.2537
0.197242	53.0536
0.198381	52.8543
0.199526	52.6556
0.200678	52.4575
0.201837	52.2601
0.203002	52.0634
0.204174	51.8673
0.205353	51.6719
0.206538	51.4772
0.20773	51.2831
0.20893	51.0897
0.210136	50.8969
0.211349	50.7048
0.212569	50.5134
0.213796	50.3226
0.21503	50.1325
0.216272	49.9431
0.21752	49.7543
0.218776	49.5662
0.220039	49.3787
0.221309	49.1919
0.222587	49.0058
0.223872	48.8203
0.225165	48.6355
0.226464	48.4514
0.227772	48.2679
0.229087	48.085
0.230409	47.9028
0.231739	47.7213
0.233077	47.5404
0.234423	47.3602
0.235776	47.1806
0.237137	47.0017
0.238506	46.8234
0.239883	46.6458
0.241268	46.4688
0.242661	46.2925
0.244062	46.1168
0.245471	45.9418
0.246888	45.7673
0.248313	45.5936
0.249747	45.4204
0.251189	45.2479
0.252639	45.0761
0.254097	44.9049
0.255564	44.7343
0.25704	44.5643
0.258523	44.3949
0.260016	44.2262
0.261517	44.0581
0.263027	43.8906
0.264545	43.7238
0.266073	43.5575
0.267609	43.3919
0.269153	43.2269
0.270707	43.0625
0.27227	42.8987
0.273842	42.7355
0.275423	42.5729
0.277013	42.4109
0.278612	42.2496
0.280221	42.0888
0.281838	41.9286
0.283465	41.769
0.285102	41.61
0.286748	41.4516
0.288403	41.2937
0.290068	41.1365
0.291743	40.9798
0.293427	40.8237
0.295121	40.6682
0.296825	40.5133
0.298538	40.3589
0.300262	40.2051
0.301995	40.0519
0.303739	39.8993
0.305492	39.7472
0.307256	39.5956
0.30903	39.4447
0.310814	39.2943
0.312608	39.1444
0.314413	38.9951
0.316228	38.8463
0.318053	38.6981
0.31989	38.5504
0.321736	38.4033
0.323594	38.2567
0.325462	38.1107
0.327341	37.9651
0.32923	37.8202
0.331131	37.6757
0.333043	37.5318
0.334965	37.3884
0.336899	37.2455
0.338844	37.1031
0.3408	36.9613
0.342768	36.82
0.344747	36.6792
0.346737	36.5389
0.348739	36.3991
0.350752	36.2598
0.352777	36.121
0.354813	35.9827
0.356862	35.845
0.358922	35.7077
0.360994	35.5709
0.363078	35.4346
0.365174	35.2988
0.367282	35.1635
0.369403	35.0287
0.371535	34.8944
0.37368	34.7605
0.375837	34.6271
0.378007	34.4942
0.380189	34.3618
0.382384	34.2299
0.384592	34.0984
0.386812	33.9674
0.389045	33.8368
0.391291	33.7068
0.39355	33.5772
0.395822	33.448
0.398107	33.3193
0.400405	33.1911
0.402717	33.0633
0.405042	32.936
0.40738	32.8091
0.409732	32.6827
0.412098	32.5567
0.414477	32.4312
0.416869	32.3061
0.419276	32.1815
0.421697	32.0573
0.424131	31.9335
0.42658	31.8102
0.429042	31.6873
0.431519	31.5648
0.43401	31.4427
0.436516	31.3211
0.439036	31.2
0.44157	31.0792
0.44412	30.9589
0.446684	30.8389
0.449262	30.7194
0.451856	30.6004
0.454465	30.4817
0.457088	30.3635
0.459727	30.2456
0.462381	30.1282
0.46505	30.0112
0.467735	29.8946
0.470435	29.7784
0.473151	29.6626
0.475883	29.5472
0.47863	29.4322
0.481393	29.3176
0.484172	29.2034
0.486968	29.0895
0.489779	28.9761
0.492606	28.8631
0.49545	28.7505
0.49831	28.6382
0.501187	28.5264
0.504081	28.4149
0.506991	28.3039
0.509918	28.1932
0.512861	28.0828
0.515822	27.9729
0.5188	27.8634
0.521795	27.7542
0.524807	27.6454
0.527837	27.537
0.530884	27.4289
0.533949	27.3212
0.537032	27.2139
0.540132	27.107
0.54325	27.0004
0.546387	26.8942
0.549541	26.7884
0.552713	26.6829
0.555904	26.5778
0.559114	26.473
0.562341	26.3686
0.565588	26.2646
0.568853	26.1609
0.572137	26.0576
0.57544	25.9546
0.578762	25.852
0.582103	25.7498
0.585464	25.6479
0.588844	25.5463
0.592243	25.4451
0.595662	25.3442
0.599101	25.2437
0.60256	25.1436
0.606038	25.0437
