Stopping power dEdx from Ionisation for Mg24[0.0] Z = 12 in G4_Si, process name: ionIoni
E [MeV]	dEdx [MeV/mm]
0.001	32.9144
0.00100577	33.0101
0.00101158	33.106
0.00101742	33.2022
0.00102329	33.2987
0.0010292	33.3955
0.00103514	33.4925
0.00104112	33.5899
0.00104713	33.6875
0.00105317	33.7854
0.00105925	33.8836
0.00106537	33.982
0.00107152	34.0808
0.00107771	34.1798
0.00108393	34.2791
0.00109018	34.3787
0.00109648	34.4786
0.00110281	34.5788
0.00110917	34.6792
0.00111558	34.78
0.00112202	34.881
0.0011285	34.9823
0.00113501	35.084
0.00114156	35.1859
0.00114815	35.2881
0.00115478	35.3906
0.00116145	35.4934
0.00116815	35.5965
0.0011749	35.6999
0.00118168	35.8036
0.0011885	35.9076
0.00119536	36.0119
0.00120226	36.1165
0.00120921	36.2214
0.00121619	36.3266
0.00122321	36.4321
0.00123027	36.5379
0.00123737	36.644
0.00124451	36.7504
0.0012517	36.8571
0.00125893	36.9642
0.00126619	37.0715
0.0012735	37.1791
0.00128086	37.2871
0.00128825	37.3954
0.00129569	37.504
0.00130317	37.6128
0.00131069	37.7221
0.00131826	37.8316
0.00132587	37.9414
0.00133352	38.0516
0.00134122	38.162
0.00134896	38.2728
0.00135675	38.3839
0.00136458	38.4954
0.00137246	38.6071
0.00138038	38.7192
0.00138835	38.8316
0.00139637	38.9443
0.00140443	39.0574
0.00141254	39.1707
0.00142069	39.2844
0.00142889	39.3985
0.00143714	39.5128
0.00144544	39.6275
0.00145378	39.7425
0.00146218	39.8579
0.00147062	39.9735
0.00147911	40.0896
0.00148765	40.2059
0.00149624	40.3226
0.00150487	40.4396
0.00151356	40.557
0.0015223	40.6747
0.00153109	40.7927
0.00153993	40.9111
0.00154882	41.0298
0.00155776	41.1488
0.00156675	41.2682
0.0015758	41.388
0.00158489	41.5081
0.00159404	41.6285
0.00160325	41.7493
0.0016125	41.8704
0.00162181	41.9919
0.00163117	42.1137
0.00164059	42.2359
0.00165006	42.3584
0.00165959	42.4813
0.00166917	42.6046
0.0016788	42.7282
0.0016885	42.8521
0.00169824	42.9764
0.00170805	43.1011
0.00171791	43.2261
0.00172783	43.3515
0.0017378	43.4773
0.00174783	43.6034
0.00175792	43.7299
0.00176807	43.8567
0.00177828	43.9839
0.00178855	44.1115
0.00179887	44.2394
0.00180926	44.3677
0.0018197	44.4964
0.00183021	44.6254
0.00184077	44.7549
0.0018514	44.8847
0.00186209	45.0148
0.00187284	45.1454
0.00188365	45.2763
0.00189452	45.4076
0.00190546	45.5393
0.00191646	45.6713
0.00192752	45.8038
0.00193865	45.9366
0.00194984	46.0698
0.0019611	46.2034
0.00197242	46.3373
0.00198381	46.4717
0.00199526	46.6064
0.00200678	46.7416
0.00201837	46.8771
0.00203002	47.013
0.00204174	47.1493
0.00205353	47.286
0.00206538	47.4231
0.0020773	47.5606
0.0020893	47.6984
0.00210136	47.8367
0.00211349	47.9754
0.00212569	48.1145
0.00213796	48.254
0.0021503	48.3938
0.00216272	48.5341
0.0021752	48.6748
0.00218776	48.8159
0.00220039	48.9574
0.00221309	49.0993
0.00222587	49.2416
0.00223872	49.3843
0.00225165	49.5275
0.00226464	49.671
0.00227772	49.815
0.00229087	49.9594
0.00230409	50.1042
0.00231739	50.2494
0.00233077	50.395
0.00234423	50.5411
0.00235776	50.6875
0.00237137	50.8344
0.00238506	50.9818
0.00239883	51.1295
0.00241268	51.2777
0.00242661	51.4263
0.00244062	51.5753
0.00245471	51.7247
0.00246888	51.8746
0.00248313	52.0249
0.00249747	52.1757
0.00251189	52.3269
0.00252639	52.4785
0.00254097	52.6305
0.00255564	52.783
0.0025704	52.936
0.00258523	53.0894
0.00260016	53.2432
0.00261517	53.3974
0.00263027	53.5521
0.00264545	53.7073
0.00266073	53.8629
0.00267609	54.0189
0.00269153	54.1754
0.00270707	54.3324
0.0027227	54.4898
0.00273842	54.6476
0.00275423	54.8059
0.00277013	54.9647
0.00278612	55.1239
0.00280221	55.2836
0.00281838	55.4438
0.00283465	55.6044
0.00285102	55.7654
0.00286748	55.927
0.00288403	56.0889
0.00290068	56.2514
0.00291743	56.4143
0.00293427	56.5777
0.00295121	56.7416
0.00296825	56.906
0.00298538	57.0708
0.00300262	57.2361
0.00301995	57.4018
0.00303739	57.5681
0.00305492	57.7348
0.00307256	57.902
0.0030903	58.0697
0.00310814	58.2379
0.00312608	58.4065
0.00314413	58.5757
0.00316228	58.7453
0.00318053	58.9154
0.0031989	59.086
0.00321736	59.2572
0.00323594	59.4287
0.00325462	59.6008
0.00327341	59.7734
0.0032923	59.9465
0.00331131	60.1201
0.00333043	60.2942
0.00334965	60.4688
0.00336899	60.6438
0.00338844	60.8194
0.003408	60.9955
0.00342768	61.1721
0.00344747	61.3493
0.00346737	61.5269
0.00348739	61.705
0.00350752	61.8837
0.00352777	62.0628
0.00354813	62.2425
0.00356862	62.4227
0.00358922	62.6034
0.00360994	62.7847
0.00363078	62.9664
0.00365174	63.1487
0.00367282	63.3315
0.00369403	63.5149
0.00371535	63.6987
0.0037368	63.8831
0.00375837	64.0681
0.00378007	64.2535
0.00380189	64.4395
0.00382384	64.6261
0.00384592	64.8131
0.00386812	65.0007
0.00389045	65.1889
0.00391291	65.3776
0.0039355	65.5668
0.00395822	65.7566
0.00398107	65.9469
0.00400405	66.1378
0.00402717	66.3292
0.00405042	66.5212
0.0040738	66.7138
0.00409732	66.9068
0.00412098	67.1005
0.00414477	67.2947
0.00416869	67.4894
0.00419276	67.6848
0.00421697	67.8807
0.00424131	68.0771
0.0042658	68.2741
0.00429042	68.4717
0.00431519	68.6699
0.0043401	68.8686
0.00436516	69.0679
0.00439036	69.2678
0.0044157	69.4682
0.0044412	69.6692
0.00446684	69.8709
0.00449262	70.073
0.00451856	70.2758
0.00454465	70.4792
0.00457088	70.6831
0.00459727	70.8876
0.00462381	71.0928
0.0046505	71.2985
0.00467735	71.5048
0.00470435	71.7117
0.00473151	71.9192
0.00475883	72.1273
0.0047863	72.3359
0.00481393	72.5452
0.00484172	72.7551
0.00486968	72.9656
0.00489779	73.1767
0.00492606	73.3885
0.0049545	73.6008
0.0049831	73.8137
0.00501187	74.0273
0.00504081	74.2414
0.00506991	74.4562
0.00509918	74.6716
0.00512861	74.8877
0.00515822	75.1043
0.005188	75.3216
0.00521795	75.5395
0.00524807	75.758
0.00527837	75.9772
0.00530884	76.197
0.00533949	76.4174
0.00537032	76.6384
0.00540132	76.8601
0.0054325	77.0825
0.00546387	77.3054
0.00549541	77.5291
0.00552713	77.7533
0.00555904	77.9782
0.00559114	78.2038
0.00562341	78.43
0.00565588	78.6568
0.00568853	78.8844
0.00572137	79.1125
0.0057544	79.3414
0.00578762	79.5708
0.00582103	79.801
0.00585464	80.0318
0.00588844	80.2633
0.00592243	80.4954
0.00595662	80.7282
0.00599101	80.9617
0.0060256	81.1959
0.00606038	81.4307
0.00609537	81.6662
0.00613056	81.9024
0.00616595	82.1393
0.00620155	82.3768
0.00623735	82.615
0.00627336	82.854
0.00630957	83.0936
0.006346	83.3339
0.00638263	83.5749
0.00641948	83.8166
0.00645654	84.0589
0.00649382	84.302
0.00653131	84.5458
0.00656901	84.7903
0.00660693	85.0355
0.00664508	85.2814
0.00668344	85.528
0.00672202	85.7753
0.00676083	86.0233
0.00679986	86.2721
0.00683912	86.5216
0.0068786	86.7717
0.00691831	87.0226
0.00695825	87.2743
0.00699842	87.5266
0.00703882	87.7797
0.00707946	88.0335
0.00712033	88.288
0.00716143	88.5433
0.00720278	88.7993
0.00724436	89.0561
0.00728618	89.3136
0.00732825	89.5718
0.00737055	89.8308
0.0074131	90.0905
0.0074559	90.3509
0.00749894	90.6122
0.00754223	90.8741
0.00758578	91.1369
0.00762957	91.4003
0.00767361	91.6646
0.00771792	91.9296
0.00776247	92.1954
0.00780728	92.4619
0.00785236	92.7292
0.00789769	92.9973
0.00794328	93.2661
0.00798914	93.5358
0.00803526	93.8061
0.00808165	94.0773
0.00812831	94.3493
0.00817523	94.622
0.00822243	94.8956
0.0082699	95.1699
0.00831764	95.445
0.00836566	95.7209
0.00841395	95.9976
0.00846253	96.2751
0.00851138	96.5534
0.00856052	96.8325
0.00860994	97.1124
0.00865964	97.3931
0.00870964	97.6746
0.00875992	97.9569
0.00881049	98.2401
0.00886135	98.524
0.00891251	98.8088
0.00896396	99.0944
0.00901571	99.3808
0.00906776	99.6681
0.00912011	99.9562
0.00917276	100.245
0.00922571	100.535
0.00927897	100.825
0.00933254	101.117
0.00938642	101.409
0.00944061	101.702
0.00949511	101.996
0.00954993	102.291
0.00960506	102.586
0.00966051	102.883
0.00971628	103.18
0.00977237	103.479
0.00982879	103.778
0.00988553	104.077
0.0099426	104.378
0.01	104.68
0.0100577	104.982
0.0101158	105.286
0.0101742	105.59
0.0102329	105.895
0.010292	106.201
0.0103514	106.508
0.0104112	106.816
0.0104713	107.125
0.0105317	107.434
0.0105925	107.745
0.0106537	108.056
0.0107152	108.368
0.0107771	108.681
0.0108393	108.995
0.0109018	109.31
0.0109648	109.626
0.0110281	110.218
0.0110917	110.536
0.0111558	110.855
0.0112202	111.174
0.011285	111.495
0.0113501	111.816
0.0114156	112.138
0.0114815	112.462
0.0115478	112.786
0.0116145	113.111
0.0116815	113.437
0.011749	113.764
0.0118168	114.092
0.011885	114.421
0.0119536	114.75
0.0120226	115.081
0.0120921	115.413
0.0121619	115.746
0.0122321	116.079
0.0123027	116.414
0.0123737	116.749
0.0124451	117.086
0.012517	117.423
0.0125893	117.762
0.0126619	118.101
0.012735	118.442
0.0128086	118.783
0.0128825	119.125
0.0129569	119.469
0.0130317	119.813
0.0131069	120.158
0.0131826	120.505
0.0132587	120.852
0.0133352	121.201
0.0134122	121.55
0.0134896	121.9
0.0135675	122.252
0.0136458	122.604
0.0137246	122.957
0.0138038	123.312
0.0138835	123.667
0.0139637	124.024
0.0140443	124.381
0.0141254	124.74
0.0142069	125.099
0.0142889	125.46
0.0143714	125.821
0.0144544	126.184
0.0145378	126.548
0.0146218	126.913
0.0147062	127.278
0.0147911	127.645
0.0148765	128.013
0.0149624	128.382
0.0150487	128.752
0.0151356	129.123
0.015223	129.495
0.0153109	129.869
0.0153993	130.243
0.0154882	130.618
0.0155776	130.995
0.0156675	131.372
0.015758	131.751
0.0158489	132.131
0.0159404	132.512
0.0160325	132.894
0.016125	133.277
0.0162181	133.661
0.0163117	134.046
0.0164059	134.433
0.0165006	134.82
0.0165959	135.209
0.0166917	135.598
0.016788	135.989
0.016885	136.381
0.0169824	136.774
0.0170805	137.169
0.0171791	137.564
0.0172783	137.96
0.017378	138.358
0.0174783	138.757
0.0175792	139.157
0.0176807	139.558
0.0177828	139.96
0.0178855	140.364
0.0179887	140.768
0.0180926	141.174
0.018197	141.581
0.0183021	141.989
0.0184077	142.398
0.018514	142.809
0.0186209	143.22
0.0187284	143.633
0.0188365	144.047
0.0189452	144.462
0.0190546	144.879
0.0191646	145.296
0.0192752	145.715
0.0193865	146.135
0.0194984	146.556
0.019611	146.979
0.0197242	147.402
0.0198381	147.827
0.0199526	148.253
0.0200678	148.681
0.0201837	149.109
0.0203002	149.539
0.0204174	149.97
0.0205353	150.402
0.0206538	150.836
0.020773	151.271
0.020893	151.707
0.0210136	152.144
0.0211349	152.582
0.0212569	153.022
0.0213796	153.463
0.021503	153.906
0.0216272	154.349
0.021752	154.794
0.0218776	155.24
0.0220039	155.688
0.0221309	156.136
0.0222587	156.587
0.0223872	157.038
0.0225165	157.491
0.0226464	157.944
0.0227772	158.4
0.0229087	158.856
0.0230409	159.314
0.0231739	159.773
0.0233077	160.234
0.0234423	160.696
0.0235776	161.159
0.0237137	161.623
0.0238506	162.089
0.0239883	162.557
0.0241268	163.025
0.0242661	163.495
0.0244062	163.966
0.0245471	164.439
0.0246888	164.913
0.0248313	165.388
0.0249747	165.865
0.0251189	166.343
0.0252639	166.822
0.0254097	167.303
0.0255564	167.785
0.025704	168.269
0.0258523	168.754
0.0260016	169.241
0.0261517	169.728
0.0263027	170.218
0.0264545	170.708
0.0266073	171.2
0.0267609	171.694
0.0269153	172.189
0.0270707	172.685
0.027227	173.183
0.0273842	173.682
0.0275423	174.182
0.0277013	174.685
0.0278612	175.188
0.0280221	175.693
0.0281838	176.199
0.0283465	176.707
0.0285102	177.217
0.0286748	177.727
0.0288403	178.24
0.0290068	178.753
0.0291743	179.269
0.0293427	179.785
0.0295121	180.304
0.0296825	180.823
0.0298538	181.345
0.0300262	181.867
0.0301995	182.391
0.0303739	182.917
0.0305492	183.444
0.0307256	183.973
0.030903	184.503
0.0310814	185.035
0.0312608	185.569
0.0314413	186.103
0.0316228	186.64
0.0318053	187.178
0.031989	187.717
0.0321736	188.258
0.0323594	188.801
0.0325462	189.345
0.0327341	189.891
0.032923	190.438
0.0331131	190.987
0.0333043	191.538
0.0334965	192.09
0.0336899	192.644
0.0338844	193.199
0.03408	193.756
0.0342768	194.314
0.0344747	194.874
0.0346737	195.436
0.0348739	195.999
0.0350752	196.564
0.0352777	197.131
0.0354813	197.699
0.0356862	198.269
0.0358922	198.84
0.0360994	199.413
0.0363078	199.988
0.0365174	200.565
0.0367282	201.143
0.0369403	201.723
0.0371535	202.304
0.037368	202.887
0.0375837	203.472
0.0378007	204.058
0.0380189	204.647
0.0382384	205.236
0.0384592	205.828
0.0386812	206.421
0.0389045	207.016
0.0391291	207.613
0.039355	208.211
0.0395822	208.812
0.0398107	209.413
0.0400405	210.017
0.0402717	210.622
0.0405042	211.229
0.040738	211.838
0.0409732	212.449
0.0412098	213.061
0.0414477	213.675
0.0416869	214.291
0.0419276	214.909
0.0421697	215.528
0.0424131	216.15
0.042658	216.773
0.0429042	217.397
0.0431519	218.024
0.043401	218.652
0.0436516	219.283
0.0439036	219.915
0.044157	220.549
0.044412	221.184
0.0446684	221.822
0.0449262	222.461
0.0451856	223.102
0.0454465	223.746
0.0457088	224.39
0.0459727	225.037
0.0462381	225.686
0.046505	226.336
0.0467735	226.989
0.0470435	227.643
0.0473151	228.299
0.0475883	228.957
0.047863	229.617
0.0481393	230.279
0.0484172	230.943
0.0486968	231.608
0.0489779	232.276
0.0492606	232.946
0.049545	233.617
0.049831	234.29
0.0501187	234.966
0.0504081	235.643
0.0506991	236.322
0.0509918	237.003
0.0512861	237.686
0.0515822	238.372
0.05188	239.059
0.0521795	239.748
0.0524807	240.439
0.0527837	241.132
0.0530884	241.827
0.0533949	242.524
0.0537032	243.223
0.0540132	243.924
0.054325	244.627
0.0546387	245.332
0.0549541	246.039
0.0552713	246.748
0.0555904	247.46
0.0559114	248.173
0.0562341	248.888
0.0565588	249.606
0.0568853	250.325
0.0572137	251.047
0.057544	251.77
0.0578762	252.496
0.0582103	253.224
0.0585464	253.954
0.0588844	254.686
0.0592243	255.42
0.0595662	256.156
0.0599101	256.894
0.060256	257.635
0.0606038	258.377
0.0609537	259.122
0.0613056	259.869
0.0616595	260.618
0.0620155	261.369
0.0623735	262.123
0.0627336	262.878
0.0630957	263.636
0.06346	264.396
0.0638263	265.158
0.0641948	265.922
0.0645654	266.689
0.0649382	267.457
0.0653131	268.228
0.0656901	269.001
0.0660693	269.777
0.0664508	270.554
0.0668344	271.334
0.0672202	272.116
0.0676083	272.901
0.0679986	273.687
0.0683912	274.476
0.068786	275.267
0.0691831	276.061
0.0695825	276.856
0.0699842	277.654
0.0703882	278.455
0.0707946	279.257
0.0712033	280.062
0.0716143	280.869
0.0720278	281.679
0.0724436	282.491
0.0728618	283.305
0.0732825	284.122
0.0737055	284.941
0.074131	285.762
0.074559	286.586
0.0749894	287.412
0.0754223	288.24
0.0758578	289.071
0.0762957	289.904
0.0767361	290.74
0.0771792	291.578
0.0776247	292.418
0.0780728	293.261
0.0785236	294.106
0.0789769	294.954
0.0794328	295.804
0.0798914	296.657
0.0803526	297.512
0.0808165	298.369
0.0812831	299.23
0.0817523	300.092
0.0822243	300.957
0.082699	301.824
0.0831764	302.694
0.0836566	303.567
0.0841395	304.442
0.0846253	305.319
0.0851138	306.199
0.0856052	307.082
0.0860994	307.967
0.0865964	308.855
0.0870964	309.745
0.0875992	310.638
0.0881049	311.533
0.0886135	312.431
0.0891251	313.332
0.0896396	314.235
0.0901571	315.141
0.0906776	316.049
0.0912011	316.96
0.0917276	317.874
0.0922571	318.79
0.0927897	319.709
0.0933254	320.63
0.0938642	321.554
0.0944061	322.481
0.0949511	323.411
0.0954993	324.343
0.0960506	325.278
0.0966051	326.215
0.0971628	327.156
0.0977237	328.099
0.0982879	329.044
0.0988553	329.993
0.099426	330.944
0.1	331.898
0.100577	332.854
0.101158	333.814
0.101742	334.776
0.102329	335.741
0.10292	336.709
0.103514	337.679
0.104112	338.653
0.104713	339.629
0.105317	340.608
0.105925	341.589
0.106537	342.574
0.107152	343.561
0.107771	344.552
0.108393	345.545
0.109018	346.541
0.109648	347.54
0.110281	348.541
0.110917	349.546
0.111558	350.554
0.112202	351.564
0.11285	352.577
0.113501	353.594
0.114156	354.613
0.114815	355.635
0.115478	356.66
0.116145	357.688
0.116815	358.719
0.11749	359.753
0.118168	360.79
0.11885	361.83
0.119536	362.873
0.120226	363.919
0.120921	364.968
0.121619	366.02
0.122321	367.075
0.123027	368.133
0.123737	369.194
0.124451	370.258
0.12517	371.325
0.125893	372.395
0.126619	373.469
0.12735	374.545
0.128086	375.625
0.128825	376.708
0.129569	377.793
0.130317	378.882
0.131069	379.974
0.131826	381.07
0.132587	382.168
0.133352	383.27
0.134122	384.374
0.134896	385.482
0.135675	386.593
0.136458	387.708
0.137246	388.825
0.138038	389.946
0.138835	391.07
0.139637	392.197
0.140443	393.328
0.141254	394.461
0.142069	395.598
0.142889	396.739
0.143714	397.882
0.144544	399.029
0.145378	400.179
0.146218	401.333
0.147062	402.489
0.147911	403.649
0.148765	404.813
0.149624	405.98
0.150487	407.15
0.151356	408.324
0.15223	409.5
0.153109	410.681
0.153993	411.865
0.154882	413.052
0.155776	414.242
0.156675	415.436
0.15758	416.634
0.158489	417.835
0.159404	419.039
0.160325	420.247
0.16125	421.458
0.162181	422.673
0.163117	423.891
0.164059	425.113
0.165006	426.338
0.165959	427.567
0.166917	428.8
0.16788	430.036
0.16885	431.275
0.169824	432.518
0.170805	433.765
0.171791	435.015
0.172783	436.269
0.17378	437.527
0.174783	438.788
0.175792	440.052
0.176807	441.321
0.177828	442.593
0.178855	443.869
0.179887	445.148
0.180926	446.431
0.18197	447.718
0.183021	449.008
0.184077	450.303
0.18514	451.601
0.186209	452.902
0.187284	454.208
0.188365	455.517
0.189452	456.83
0.190546	458.147
0.191646	459.467
0.192752	460.791
0.193865	462.12
0.194984	463.452
0.19611	464.787
0.197242	466.127
0.198381	467.471
0.199526	468.818
0.200678	470.169
0.201837	471.525
0.203002	472.884
0.204174	474.247
0.205353	475.614
0.206538	476.985
0.20773	478.36
0.20893	479.738
0.210136	481.121
0.211349	482.508
0.212569	483.899
0.213796	485.293
0.21503	486.692
0.216272	488.095
0.21752	489.502
0.218776	490.913
0.220039	492.328
0.221309	493.747
0.222587	495.17
0.223872	496.597
0.225165	498.029
0.226464	499.464
0.227772	500.904
0.229087	502.348
0.230409	503.796
0.231739	505.248
0.233077	506.704
0.234423	508.165
0.235776	509.629
0.237137	511.098
0.238506	512.571
0.239883	514.049
0.241268	515.531
0.242661	517.017
0.244062	518.507
0.245471	520.001
0.246888	521.5
0.248313	523.003
0.249747	524.511
0.251189	526.023
0.252639	527.539
0.254097	529.059
0.255564	530.584
0.25704	532.114
0.258523	533.647
0.260016	535.186
0.261517	536.728
0.263027	538.275
0.264545	539.827
0.266073	541.383
0.267609	542.943
0.269153	544.508
0.270707	546.078
0.27227	547.652
0.273842	549.23
0.275423	550.813
0.277013	552.401
0.278612	553.993
0.280221	555.59
0.281838	557.191
0.283465	558.797
0.285102	560.408
0.286748	562.023
0.288403	563.643
0.290068	565.268
0.291743	566.897
0.293427	568.531
0.295121	570.17
0.296825	571.814
0.298538	573.462
0.300262	575.115
0.301995	576.772
0.303739	578.435
0.305492	580.102
0.307256	581.774
0.30903	583.451
0.310814	585.133
0.312608	586.819
0.314413	588.511
0.316228	590.207
0.318053	591.908
0.31989	593.614
0.321736	595.325
0.323594	597.041
0.325462	598.762
0.327341	600.488
0.32923	602.219
0.331131	603.955
0.333043	605.696
0.334965	607.441
0.336899	609.192
0.338844	610.948
0.3408	612.709
0.342768	614.475
0.344747	616.246
0.346737	618.023
0.348739	619.804
0.350752	621.591
0.352777	623.382
0.354813	625.179
0.356862	626.981
0.358922	628.788
0.360994	630.601
0.363078	632.418
0.365174	634.241
0.367282	636.069
0.369403	637.903
0.371535	639.741
0.37368	641.585
0.375837	643.435
0.378007	645.289
0.380189	647.149
0.382384	649.015
0.384592	650.885
0.386812	652.761
0.389045	654.643
0.391291	656.53
0.39355	658.422
0.395822	660.32
0.398107	662.223
0.400405	664.132
0.402717	666.046
0.405042	667.966
0.40738	669.891
0.409732	671.822
0.412098	673.759
0.414477	675.701
0.416869	677.648
0.419276	679.602
0.421697	681.561
0.424131	683.525
0.42658	685.495
0.429042	687.471
0.431519	689.453
0.43401	691.44
0.436516	693.433
0.439036	695.432
0.44157	697.436
0.44412	699.446
0.446684	701.462
0.449262	703.484
0.451856	705.512
0.454465	707.546
0.457088	709.585
0.459727	711.63
0.462381	713.681
0.46505	715.739
0.467735	717.802
0.470435	719.871
0.473151	721.946
0.475883	724.026
0.47863	726.113
0.481393	728.206
0.484172	730.305
0.486968	732.41
0.489779	734.521
0.492606	736.639
0.49545	738.762
0.49831	740.891
0.501187	743.027
0.504081	745.168
0.506991	747.316
0.509918	749.47
0.512861	751.631
0.515822	753.797
0.5188	755.97
0.521795	758.149
0.524807	760.334
0.527837	762.526
0.530884	764.723
0.533949	766.928
0.537032	769.138
0.540132	771.355
0.54325	773.579
0.546387	775.808
0.549541	778.044
0.552713	780.287
0.555904	782.536
0.559114	784.792
0.562341	787.054
0.565588	789.322
0.568853	791.598
0.572137	793.879
0.57544	796.167
0.578762	798.462
0.582103	800.764
0.585464	803.072
0.588844	805.387
0.592243	807.708
0.595662	810.036
0.599101	812.371
0.60256	814.937
0.606038	817.593
