Stopping power dEdx from Ionisation for Mg24[0.0] Z = 12 in Water, process name: ionIoni
E [MeV]	dEdx [MeV/mm]
0.001	22.9985
0.00100577	23.0652
0.00101158	23.132
0.00101742	23.1991
0.00102329	23.2663
0.0010292	23.3338
0.00103514	23.4014
0.00104112	23.4693
0.00104713	23.5373
0.00105317	23.6055
0.00105925	23.674
0.00106537	23.7426
0.00107152	23.8114
0.00107771	23.8804
0.00108393	23.9496
0.00109018	24.0191
0.00109648	24.0887
0.00110281	24.1585
0.00110917	24.2285
0.00111558	24.2987
0.00112202	24.3692
0.0011285	24.4398
0.00113501	24.5106
0.00114156	24.5817
0.00114815	24.6529
0.00115478	24.7243
0.00116145	24.796
0.00116815	24.8678
0.0011749	24.9399
0.00118168	25.0122
0.0011885	25.0847
0.00119536	25.1573
0.00120226	25.2302
0.00120921	25.3034
0.00121619	25.3767
0.00122321	25.4502
0.00123027	25.5239
0.00123737	25.5979
0.00124451	25.6721
0.0012517	25.7465
0.00125893	25.821
0.00126619	25.8959
0.0012735	25.9709
0.00128086	26.0461
0.00128825	26.1216
0.00129569	26.1973
0.00130317	26.2732
0.00131069	26.3493
0.00131826	26.4256
0.00132587	26.5022
0.00133352	26.5789
0.00134122	26.6559
0.00134896	26.7332
0.00135675	26.8106
0.00136458	26.8883
0.00137246	26.9661
0.00138038	27.0443
0.00138835	27.1226
0.00139637	27.2012
0.00140443	27.28
0.00141254	27.359
0.00142069	27.4382
0.00142889	27.5177
0.00143714	27.5974
0.00144544	27.6773
0.00145378	27.7575
0.00146218	27.8379
0.00147062	27.9185
0.00147911	27.9994
0.00148765	28.0804
0.00149624	28.1618
0.00150487	28.2433
0.00151356	28.3251
0.0015223	28.4072
0.00153109	28.4894
0.00153993	28.5719
0.00154882	28.6547
0.00155776	28.7376
0.00156675	28.8209
0.0015758	28.9043
0.00158489	28.988
0.00159404	29.072
0.00160325	29.1561
0.0016125	29.2406
0.00162181	29.3252
0.00163117	29.4101
0.00164059	29.4953
0.00165006	29.5807
0.00165959	29.6663
0.00166917	29.7522
0.0016788	29.8384
0.0016885	29.9248
0.00169824	30.0114
0.00170805	30.0983
0.00171791	30.1854
0.00172783	30.2728
0.0017378	30.3605
0.00174783	30.4484
0.00175792	30.5365
0.00176807	30.6249
0.00177828	30.7136
0.00178855	30.8025
0.00179887	30.8917
0.00180926	30.9811
0.0018197	31.0708
0.00183021	31.1607
0.00184077	31.2509
0.0018514	31.3414
0.00186209	31.4321
0.00187284	31.5231
0.00188365	31.6144
0.00189452	31.7059
0.00190546	31.7976
0.00191646	31.8897
0.00192752	31.982
0.00193865	32.0745
0.00194984	32.1674
0.0019611	32.2605
0.00197242	32.3539
0.00198381	32.4475
0.00199526	32.5414
0.00200678	32.6356
0.00201837	32.73
0.00203002	32.8248
0.00204174	32.9198
0.00205353	33.015
0.00206538	33.1106
0.0020773	33.2064
0.0020893	33.3025
0.00210136	33.3989
0.00211349	33.4955
0.00212569	33.5925
0.00213796	33.6897
0.0021503	33.7872
0.00216272	33.885
0.0021752	33.983
0.00218776	34.0813
0.00220039	34.18
0.00221309	34.2789
0.00222587	34.3781
0.00223872	34.4775
0.00225165	34.5773
0.00226464	34.6774
0.00227772	34.7777
0.00229087	34.8783
0.00230409	34.9792
0.00231739	35.0804
0.00233077	35.1819
0.00234423	35.2837
0.00235776	35.3858
0.00237137	35.4882
0.00238506	35.5909
0.00239883	35.6939
0.00241268	35.7971
0.00242661	35.9007
0.00244062	36.0046
0.00245471	36.1087
0.00246888	36.2132
0.00248313	36.3179
0.00249747	36.423
0.00251189	36.5284
0.00252639	36.6341
0.00254097	36.74
0.00255564	36.8463
0.0025704	36.9529
0.00258523	37.0598
0.00260016	37.167
0.00261517	37.2745
0.00263027	37.3824
0.00264545	37.4905
0.00266073	37.5989
0.00267609	37.7077
0.00269153	37.8168
0.00270707	37.9262
0.0027227	38.0359
0.00273842	38.1459
0.00275423	38.2562
0.00277013	38.3669
0.00278612	38.4779
0.00280221	38.5891
0.00281838	38.7008
0.00283465	38.8127
0.00285102	38.925
0.00286748	39.0375
0.00288403	39.1504
0.00290068	39.2637
0.00291743	39.3772
0.00293427	39.4911
0.00295121	39.6053
0.00296825	39.7199
0.00298538	39.8347
0.00300262	39.95
0.00301995	40.0655
0.00303739	40.1814
0.00305492	40.2976
0.00307256	40.4141
0.0030903	40.531
0.00310814	40.6482
0.00312608	40.7657
0.00314413	40.8836
0.00316228	41.0018
0.00318053	41.1204
0.0031989	41.2393
0.00321736	41.3586
0.00323594	41.4782
0.00325462	41.5981
0.00327341	41.7184
0.0032923	41.839
0.00331131	41.96
0.00333043	42.0814
0.00334965	42.203
0.00336899	42.3251
0.00338844	42.4474
0.003408	42.5702
0.00342768	42.6933
0.00344747	42.8167
0.00346737	42.9405
0.00348739	43.0647
0.00350752	43.1892
0.00352777	43.3141
0.00354813	43.4393
0.00356862	43.5649
0.00358922	43.6908
0.00360994	43.8172
0.00363078	43.9438
0.00365174	44.0709
0.00367282	44.1983
0.00369403	44.3261
0.00371535	44.4542
0.0037368	44.5828
0.00375837	44.7116
0.00378007	44.8409
0.00380189	44.9705
0.00382384	45.1005
0.00384592	45.2309
0.00386812	45.3617
0.00389045	45.4928
0.00391291	45.6243
0.0039355	45.7562
0.00395822	45.8885
0.00398107	46.0212
0.00400405	46.1542
0.00402717	46.2876
0.00405042	46.4214
0.0040738	46.5556
0.00409732	46.6902
0.00412098	46.8251
0.00414477	46.9605
0.00416869	47.0962
0.00419276	47.2324
0.00421697	47.3689
0.00424131	47.5058
0.0042658	47.6431
0.00429042	47.7808
0.00431519	47.919
0.0043401	48.0575
0.00436516	48.1964
0.00439036	48.3357
0.0044157	48.4754
0.0044412	48.6155
0.00446684	48.756
0.00449262	48.8969
0.00451856	49.0382
0.00454465	49.18
0.00457088	49.3221
0.00459727	49.4647
0.00462381	49.6076
0.0046505	49.751
0.00467735	49.8948
0.00470435	50.039
0.00473151	50.1836
0.00475883	50.3286
0.0047863	50.4741
0.00481393	50.62
0.00484172	50.7663
0.00486968	50.913
0.00489779	51.0601
0.00492606	51.2077
0.0049545	51.3557
0.0049831	51.5041
0.00501187	51.6529
0.00504081	51.8022
0.00506991	51.9519
0.00509918	52.102
0.00512861	52.2526
0.00515822	52.4036
0.005188	52.555
0.00521795	52.7069
0.00524807	52.8592
0.00527837	53.0119
0.00530884	53.1651
0.00533949	53.3187
0.00537032	53.6066
0.00540132	53.7611
0.0054325	53.9161
0.00546387	54.0715
0.00549541	54.2273
0.00552713	54.3836
0.00555904	54.5404
0.00559114	54.6976
0.00562341	54.8552
0.00565588	55.0133
0.00568853	55.1719
0.00572137	55.3309
0.0057544	55.4904
0.00578762	55.6504
0.00582103	55.8108
0.00585464	55.9716
0.00588844	56.133
0.00592243	56.2948
0.00595662	56.457
0.00599101	56.6198
0.0060256	56.783
0.00606038	56.9466
0.00609537	57.1108
0.00613056	57.2754
0.00616595	57.4405
0.00620155	57.606
0.00623735	57.7721
0.00627336	57.9386
0.00630957	58.1056
0.006346	58.2731
0.00638263	58.4411
0.00641948	58.6095
0.00645654	58.7784
0.00649382	58.9479
0.00653131	59.1178
0.00656901	59.2882
0.00660693	59.4591
0.00664508	59.6305
0.00668344	59.8023
0.00672202	59.9747
0.00676083	60.1476
0.00679986	60.3209
0.00683912	60.4948
0.0068786	60.6692
0.00691831	60.844
0.00695825	61.0194
0.00699842	61.1953
0.00703882	61.3717
0.00707946	61.5486
0.00712033	61.726
0.00716143	61.9039
0.00720278	62.0823
0.00724436	62.2613
0.00728618	62.4407
0.00732825	62.6207
0.00737055	62.8012
0.0074131	62.9822
0.0074559	63.1638
0.00749894	63.3458
0.00754223	63.5284
0.00758578	63.7115
0.00762957	63.8952
0.00767361	64.0793
0.00771792	64.264
0.00776247	64.4493
0.00780728	64.6351
0.00785236	64.8214
0.00789769	65.0082
0.00794328	65.1956
0.00798914	65.3835
0.00803526	65.5719
0.00808165	65.761
0.00812831	65.9505
0.00817523	66.1406
0.00822243	66.3312
0.0082699	66.5224
0.00831764	66.7142
0.00836566	66.9065
0.00841395	67.0993
0.00846253	67.2927
0.00851138	67.4867
0.00856052	67.6812
0.00860994	67.8763
0.00865964	68.0719
0.00870964	68.2681
0.00875992	68.4649
0.00881049	68.6623
0.00886135	68.8602
0.00891251	69.0587
0.00896396	69.2577
0.00901571	69.4573
0.00906776	69.6575
0.00912011	69.8583
0.00917276	70.0597
0.00922571	70.2616
0.00927897	70.4641
0.00933254	70.6672
0.00938642	70.8709
0.00944061	71.0752
0.00949511	71.2801
0.00954993	71.4855
0.00960506	71.6916
0.00966051	71.8982
0.00971628	72.1054
0.00977237	72.3133
0.00982879	72.5217
0.00988553	72.7308
0.0099426	72.9404
0.01	73.1506
0.0100577	73.3615
0.0101158	73.5729
0.0101742	73.785
0.0102329	73.9977
0.010292	74.211
0.0103514	74.4249
0.0104112	74.6394
0.0104713	74.8545
0.0105317	75.0703
0.0105925	75.2867
0.0106537	75.5037
0.0107152	75.7213
0.0107771	75.9396
0.0108393	76.1584
0.0109018	76.378
0.0109648	76.5981
0.0110281	76.8189
0.0110917	77.0403
0.0111558	77.2624
0.0112202	77.4851
0.011285	77.7084
0.0113501	77.9324
0.0114156	78.157
0.0114815	78.3823
0.0115478	78.6082
0.0116145	78.8348
0.0116815	79.0621
0.011749	79.2899
0.0118168	79.5185
0.011885	79.7477
0.0119536	79.9775
0.0120226	80.2081
0.0120921	80.4393
0.0121619	80.6711
0.0122321	80.9036
0.0123027	81.1368
0.0123737	81.3707
0.0124451	81.6052
0.012517	81.8405
0.0125893	82.0764
0.0126619	82.3129
0.012735	82.5502
0.0128086	82.7881
0.0128825	83.0268
0.0129569	83.2661
0.0130317	83.5061
0.0131069	83.7468
0.0131826	83.9882
0.0132587	84.2302
0.0133352	84.473
0.0134122	84.7165
0.0134896	84.9607
0.0135675	85.2056
0.0136458	85.4512
0.0137246	85.6975
0.0138038	85.9445
0.0138835	86.1922
0.0139637	86.4407
0.0140443	86.6898
0.0141254	86.9397
0.0142069	87.1903
0.0142889	87.4416
0.0143714	87.6936
0.0144544	87.9464
0.0145378	88.1999
0.0146218	88.4541
0.0147062	88.7091
0.0147911	88.9648
0.0148765	89.2212
0.0149624	89.4784
0.0150487	89.7363
0.0151356	89.9949
0.015223	90.2543
0.0153109	90.5145
0.0153993	90.7754
0.0154882	91.037
0.0155776	91.2994
0.0156675	91.5626
0.015758	91.8265
0.0158489	92.0912
0.0159404	92.3566
0.0160325	92.6228
0.016125	92.8898
0.0162181	93.1576
0.0163117	93.4261
0.0164059	93.6954
0.0165006	93.9654
0.0165959	94.2363
0.0166917	94.5079
0.016788	94.7803
0.016885	95.0535
0.0169824	95.3275
0.0170805	95.6022
0.0171791	95.8778
0.0172783	96.1542
0.017378	96.4313
0.0174783	96.7093
0.0175792	96.988
0.0176807	97.2676
0.0177828	97.5479
0.0178855	97.8291
0.0179887	98.1111
0.0180926	98.3939
0.018197	98.6775
0.0183021	98.9619
0.0184077	99.2472
0.018514	99.5332
0.0186209	99.8201
0.0187284	100.108
0.0188365	100.396
0.0189452	100.686
0.0190546	100.976
0.0191646	101.267
0.0192752	101.559
0.0193865	101.852
0.0194984	102.145
0.019611	102.44
0.0197242	102.735
0.0198381	103.031
0.0199526	103.328
0.0200678	103.626
0.0201837	103.925
0.0203002	104.224
0.0204174	104.524
0.0205353	104.826
0.0206538	105.128
0.020773	105.431
0.020893	105.735
0.0210136	106.04
0.0211349	106.345
0.0212569	106.652
0.0213796	106.959
0.021503	107.267
0.0216272	107.577
0.021752	107.887
0.0218776	108.198
0.0220039	108.51
0.0221309	108.822
0.0222587	109.136
0.0223872	109.451
0.0225165	109.766
0.0226464	110.082
0.0227772	110.4
0.0229087	110.718
0.0230409	111.037
0.0231739	111.357
0.0233077	111.678
0.0234423	112
0.0235776	112.323
0.0237137	112.647
0.0238506	112.971
0.0239883	113.297
0.0241268	113.623
0.0242661	113.951
0.0244062	114.279
0.0245471	114.609
0.0246888	114.939
0.0248313	115.27
0.0249747	115.603
0.0251189	115.936
0.0252639	116.27
0.0254097	116.605
0.0255564	116.941
0.025704	117.278
0.0258523	117.616
0.0260016	117.955
0.0261517	118.295
0.0263027	118.636
0.0264545	118.978
0.0266073	119.321
0.0267609	119.665
0.0269153	120.01
0.0270707	120.356
0.027227	120.703
0.0273842	121.051
0.0275423	121.4
0.0277013	121.75
0.0278612	122.101
0.0280221	122.453
0.0281838	122.806
0.0283465	123.16
0.0285102	123.515
0.0286748	123.871
0.0288403	124.228
0.0290068	124.586
0.0291743	124.945
0.0293427	125.305
0.0295121	125.666
0.0296825	126.028
0.0298538	126.392
0.0300262	126.756
0.0301995	127.121
0.0303739	127.488
0.0305492	127.855
0.0307256	128.224
0.030903	128.593
0.0310814	128.964
0.0312608	129.336
0.0314413	129.708
0.0316228	130.082
0.0318053	130.457
0.031989	130.833
0.0321736	131.21
0.0323594	131.589
0.0325462	131.968
0.0327341	132.348
0.032923	132.73
0.0331131	133.112
0.0333043	133.496
0.0334965	133.881
0.0336899	134.267
0.0338844	134.654
0.03408	135.042
0.0342768	135.431
0.0344747	135.821
0.0346737	136.213
0.0348739	136.605
0.0350752	136.999
0.0352777	137.394
0.0354813	137.79
0.0356862	138.187
0.0358922	138.586
0.0360994	138.985
0.0363078	139.386
0.0365174	139.787
0.0367282	140.19
0.0369403	140.594
0.0371535	141
0.037368	141.406
0.0375837	141.814
0.0378007	142.222
0.0380189	142.632
0.0382384	143.043
0.0384592	143.456
0.0386812	143.869
0.0389045	144.284
0.0391291	144.7
0.039355	145.117
0.0395822	145.535
0.0398107	145.955
0.0400405	146.375
0.0402717	146.797
0.0405042	147.22
0.040738	147.645
0.0409732	148.07
0.0412098	148.497
0.0414477	148.925
0.0416869	149.354
0.0419276	149.785
0.0421697	150.217
0.0424131	150.65
0.042658	151.084
0.0429042	151.519
0.0431519	151.956
0.043401	152.394
0.0436516	152.833
0.0439036	153.274
0.044157	153.716
0.044412	154.159
0.0446684	154.603
0.0449262	155.049
0.0451856	155.496
0.0454465	155.944
0.0457088	156.393
0.0459727	156.844
0.0462381	157.296
0.046505	157.75
0.0467735	158.204
0.0470435	158.66
0.0473151	159.118
0.0475883	159.576
0.047863	160.036
0.0481393	160.497
0.0484172	160.96
0.0486968	161.424
0.0489779	161.889
0.0492606	162.356
0.049545	162.824
0.049831	163.293
0.0501187	163.764
0.0504081	164.236
0.0506991	164.709
0.0509918	165.184
0.0512861	165.66
0.0515822	166.138
0.05188	166.617
0.0521795	167.097
0.0524807	167.578
0.0527837	168.061
0.0530884	168.546
0.0533949	169.032
0.0537032	169.519
0.0540132	170.008
0.054325	170.498
0.0546387	170.989
0.0549541	171.482
0.0552713	171.976
0.0555904	172.472
0.0559114	172.969
0.0562341	173.467
0.0565588	173.967
0.0568853	174.469
0.0572137	174.972
0.057544	175.476
0.0578762	175.982
0.0582103	176.489
0.0585464	176.998
0.0588844	177.508
0.0592243	178.02
0.0595662	178.533
0.0599101	179.047
0.060256	179.564
0.0606038	180.081
0.0609537	180.6
0.0613056	181.121
0.0616595	181.643
0.0620155	182.166
0.0623735	182.691
0.0627336	183.218
0.0630957	183.746
0.06346	184.276
0.0638263	184.807
0.0641948	185.34
0.0645654	185.874
0.0649382	186.41
0.0653131	186.947
0.0656901	187.486
0.0660693	188.026
0.0664508	188.568
0.0668344	189.112
0.0672202	189.657
0.0676083	190.203
0.0679986	190.752
0.0683912	191.301
0.068786	191.853
0.0691831	192.406
0.0695825	192.96
0.0699842	193.517
0.0703882	194.074
0.0707946	194.634
0.0712033	195.195
0.0716143	195.757
0.0720278	196.322
0.0724436	196.887
0.0728618	197.455
0.0732825	198.024
0.0737055	198.595
0.074131	199.167
0.074559	199.741
0.0749894	200.317
0.0754223	200.895
0.0758578	201.474
0.0762957	202.054
0.0767361	202.637
0.0771792	203.221
0.0776247	203.807
0.0780728	204.394
0.0785236	204.983
0.0789769	205.574
0.0794328	206.166
0.0798914	206.761
0.0803526	207.357
0.0808165	207.954
0.0812831	208.554
0.0817523	209.155
0.0822243	209.758
0.082699	210.362
0.0831764	210.969
0.0836566	211.577
0.0841395	212.187
0.0846253	212.798
0.0851138	213.412
0.0856052	214.027
0.0860994	214.644
0.0865964	215.262
0.0870964	215.883
0.0875992	216.505
0.0881049	217.129
0.0886135	217.755
0.0891251	218.383
0.0896396	219.012
0.0901571	219.643
0.0906776	220.276
0.0912011	220.911
0.0917276	221.548
0.0922571	222.187
0.0927897	222.827
0.0933254	223.469
0.0938642	224.114
0.0944061	224.76
0.0949511	225.407
0.0954993	226.057
0.0960506	226.709
0.0966051	227.362
0.0971628	228.017
0.0977237	228.675
0.0982879	229.334
0.0988553	229.995
0.099426	230.658
0.1	231.323
0.100577	231.989
0.101158	232.658
0.101742	233.329
0.102329	234.001
0.10292	234.676
0.103514	235.352
0.104112	236.03
0.104713	236.711
0.105317	237.393
0.105925	238.077
0.106537	238.764
0.107152	239.452
0.107771	240.142
0.108393	240.834
0.109018	241.528
0.109648	242.225
0.110281	242.923
0.110917	243.623
0.111558	244.325
0.112202	245.029
0.11285	245.736
0.113501	246.444
0.114156	247.154
0.114815	247.867
0.115478	248.581
0.116145	249.298
0.116815	250.016
0.11749	250.737
0.118168	251.46
0.11885	252.184
0.119536	252.911
0.120226	253.64
0.120921	254.371
0.121619	255.104
0.122321	255.84
0.123027	256.577
0.123737	257.317
0.124451	258.058
0.12517	258.802
0.125893	259.548
0.126619	260.296
0.12735	261.047
0.128086	261.799
0.128825	262.554
0.129569	263.31
0.130317	264.069
0.131069	264.831
0.131826	265.594
0.132587	266.359
0.133352	267.127
0.134122	267.897
0.134896	268.669
0.135675	269.444
0.136458	270.22
0.137246	270.999
0.138038	271.78
0.138835	272.564
0.139637	273.349
0.140443	274.137
0.141254	274.927
0.142069	275.72
0.142889	276.515
0.143714	277.312
0.144544	278.111
0.145378	278.913
0.146218	279.717
0.147062	280.523
0.147911	281.331
0.148765	282.142
0.149624	282.955
0.150487	283.771
0.151356	284.589
0.15223	285.409
0.153109	286.232
0.153993	287.057
0.154882	287.884
0.155776	288.714
0.156675	289.546
0.15758	290.381
0.158489	291.218
0.159404	292.057
0.160325	292.899
0.16125	293.743
0.162181	294.59
0.163117	295.439
0.164059	296.291
0.165006	297.145
0.165959	298.001
0.166917	298.86
0.16788	299.722
0.16885	300.586
0.169824	301.452
0.170805	302.321
0.171791	303.192
0.172783	304.066
0.17378	304.943
0.174783	305.822
0.175792	306.703
0.176807	307.587
0.177828	308.474
0.178855	309.363
0.179887	310.255
0.180926	311.149
0.18197	312.046
0.183021	312.945
0.184077	313.847
0.18514	314.752
0.186209	315.659
0.187284	316.569
0.188365	317.481
0.189452	318.396
0.190546	319.314
0.191646	320.234
0.192752	321.158
0.193865	322.083
0.194984	323.012
0.19611	323.943
0.197242	324.876
0.198381	325.813
0.199526	326.752
0.200678	327.694
0.201837	328.638
0.203002	329.585
0.204174	330.535
0.205353	331.488
0.206538	332.444
0.20773	333.402
0.20893	334.363
0.210136	335.327
0.211349	336.293
0.212569	337.263
0.213796	338.235
0.21503	339.21
0.216272	340.187
0.21752	341.168
0.218776	342.151
0.220039	343.137
0.221309	344.126
0.222587	345.118
0.223872	346.113
0.225165	347.111
0.226464	348.111
0.227772	349.115
0.229087	350.121
0.230409	351.13
0.231739	352.142
0.233077	353.157
0.234423	354.175
0.235776	355.196
0.237137	356.22
0.238506	357.247
0.239883	358.276
0.241268	359.309
0.242661	360.345
0.244062	361.383
0.245471	362.425
0.246888	363.47
0.248313	364.517
0.249747	365.568
0.251189	366.622
0.252639	367.678
0.254097	368.738
0.255564	369.801
0.25704	370.867
0.258523	371.936
0.260016	373.008
0.261517	374.083
0.263027	375.161
0.264545	376.243
0.266073	377.327
0.267609	378.415
0.269153	379.506
0.270707	380.599
0.27227	381.696
0.273842	382.797
0.275423	383.9
0.277013	385.007
0.278612	386.116
0.280221	387.229
0.281838	388.345
0.283465	389.465
0.285102	390.587
0.286748	391.713
0.288403	392.842
0.290068	393.974
0.291743	395.11
0.293427	396.249
0.295121	397.391
0.296825	398.536
0.298538	399.685
0.300262	400.837
0.301995	401.993
0.303739	403.151
0.305492	404.313
0.307256	405.479
0.30903	406.647
0.310814	407.82
0.312608	408.995
0.314413	410.174
0.316228	411.356
0.318053	412.542
0.31989	413.731
0.321736	414.924
0.323594	416.12
0.325462	417.319
0.327341	418.522
0.32923	419.728
0.331131	420.938
0.333043	422.151
0.334965	423.368
0.336899	424.588
0.338844	425.812
0.3408	427.04
0.342768	428.27
0.344747	429.505
0.346737	430.743
0.348739	431.984
0.350752	433.23
0.352777	434.478
0.354813	435.731
0.356862	436.987
0.358922	438.246
0.360994	439.509
0.363078	440.776
0.365174	442.047
0.367282	443.321
0.369403	444.599
0.371535	445.88
0.37368	447.165
0.375837	448.454
0.378007	449.747
0.380189	451.043
0.382384	452.343
0.384592	453.647
0.386812	454.955
0.389045	456.266
0.391291	457.581
0.39355	458.9
0.395822	460.223
0.398107	461.549
0.400405	462.88
0.402717	464.214
0.405042	465.552
0.40738	466.894
0.409732	468.24
0.412098	469.589
0.414477	470.943
0.416869	472.3
0.419276	473.662
0.421697	475.027
0.424131	476.396
0.42658	477.769
0.429042	479.146
0.431519	480.527
0.43401	481.912
0.436516	483.301
0.439036	484.694
0.44157	486.092
0.44412	487.493
0.446684	488.898
0.449262	490.307
0.451856	491.72
0.454465	493.138
0.457088	494.559
0.459727	495.984
0.462381	497.414
0.46505	498.848
0.467735	500.286
0.470435	501.728
0.473151	503.174
0.475883	504.624
0.47863	506.079
0.481393	507.537
0.484172	509
0.486968	510.467
0.489779	511.939
0.492606	513.414
0.49545	514.894
0.49831	516.378
0.501187	517.867
0.504081	519.36
0.506991	520.857
0.509918	522.358
0.512861	523.863
0.515822	525.373
0.5188	526.888
0.521795	528.406
0.524807	529.929
0.527837	531.457
0.530884	532.989
0.533949	534.525
0.537032	536.066
0.540132	537.611
0.54325	539.161
0.546387	540.715
0.549541	542.273
0.552713	543.836
0.555904	545.404
0.559114	546.976
0.562341	548.552
0.565588	550.133
0.568853	551.719
0.572137	553.309
0.57544	554.904
0.578762	556.504
0.582103	558.108
0.585464	559.716
0.588844	561.33
0.592243	562.948
0.595662	564.57
0.599101	566.198
0.60256	567.989
0.606038	569.846
0.609537	571.714
0.613056	573.591
