Stopping power dEdx from Ionisation for Mn55[0.0] Z = 25 in G4_Si, process name: ionIoni
E [MeV]	dEdx [MeV/mm]
0.001	30.3568
0.00100577	30.445
0.00101158	30.5334
0.00101742	30.6221
0.00102329	30.711
0.0010292	30.8002
0.00103514	30.8897
0.00104112	30.9794
0.00104713	31.0693
0.00105317	31.1596
0.00105925	31.25
0.00106537	31.3408
0.00107152	31.4318
0.00107771	31.5231
0.00108393	31.6146
0.00109018	31.7064
0.00109648	31.7985
0.00110281	31.8908
0.00110917	31.9834
0.00111558	32.0763
0.00112202	32.1694
0.0011285	32.2628
0.00113501	32.3565
0.00114156	32.4504
0.00114815	32.5446
0.00115478	32.6391
0.00116145	32.7338
0.00116815	32.8289
0.0011749	32.9242
0.00118168	33.0197
0.0011885	33.1156
0.00119536	33.2117
0.00120226	33.3081
0.00120921	33.4048
0.00121619	33.5018
0.00122321	33.599
0.00123027	33.6965
0.00123737	33.7943
0.00124451	33.8924
0.0012517	33.9908
0.00125893	34.0894
0.00126619	34.1884
0.0012735	34.2876
0.00128086	34.3871
0.00128825	34.4869
0.00129569	34.5869
0.00130317	34.6873
0.00131069	34.788
0.00131826	34.8889
0.00132587	34.9901
0.00133352	35.0917
0.00134122	35.1935
0.00134896	35.2956
0.00135675	35.398
0.00136458	35.5007
0.00137246	35.6037
0.00138038	35.707
0.00138835	35.8106
0.00139637	35.9145
0.00140443	36.0187
0.00141254	36.1232
0.00142069	36.228
0.00142889	36.3331
0.00143714	36.4385
0.00144544	36.5442
0.00145378	36.6502
0.00146218	36.7565
0.00147062	36.8631
0.00147911	36.9701
0.00148765	37.0773
0.00149624	37.1849
0.00150487	37.2927
0.00151356	37.4009
0.0015223	37.5094
0.00153109	37.6181
0.00153993	37.7272
0.00154882	37.8367
0.00155776	37.9464
0.00156675	38.0564
0.0015758	38.1668
0.00158489	38.2775
0.00159404	38.3885
0.00160325	38.4998
0.0016125	38.6115
0.00162181	38.7234
0.00163117	38.8357
0.00164059	38.9483
0.00165006	39.0613
0.00165959	39.1745
0.00166917	39.2881
0.0016788	39.4021
0.0016885	39.5163
0.00169824	39.6309
0.00170805	39.7458
0.00171791	39.861
0.00172783	39.9766
0.0017378	40.0925
0.00174783	40.2087
0.00175792	40.3253
0.00176807	40.4422
0.00177828	40.5594
0.00178855	40.677
0.00179887	40.795
0.00180926	40.9132
0.0018197	41.0318
0.00183021	41.1508
0.00184077	41.27
0.0018514	41.3897
0.00186209	41.5096
0.00187284	41.63
0.00188365	41.7506
0.00189452	41.8717
0.00190546	41.993
0.00191646	42.1147
0.00192752	42.2368
0.00193865	42.3592
0.00194984	42.482
0.0019611	42.6051
0.00197242	42.7286
0.00198381	42.8524
0.00199526	42.9766
0.00200678	43.1012
0.00201837	43.2261
0.00203002	43.3513
0.00204174	43.477
0.00205353	43.603
0.00206538	43.7293
0.0020773	43.856
0.0020893	43.9831
0.00210136	44.1106
0.00211349	44.2384
0.00212569	44.3666
0.00213796	44.4951
0.0021503	44.624
0.00216272	44.7533
0.0021752	44.883
0.00218776	45.0131
0.00220039	45.1435
0.00221309	45.2743
0.00222587	45.4054
0.00223872	45.537
0.00225165	45.6689
0.00226464	45.8012
0.00227772	45.9339
0.00229087	46.067
0.00230409	46.2005
0.00231739	46.3343
0.00233077	46.4685
0.00234423	46.6031
0.00235776	46.7381
0.00237137	46.8735
0.00238506	47.0093
0.00239883	47.1455
0.00241268	47.2821
0.00242661	47.419
0.00244062	47.5564
0.00245471	47.6941
0.00246888	47.8323
0.00248313	47.9708
0.00249747	48.1097
0.00251189	48.2491
0.00252639	48.3888
0.00254097	48.529
0.00255564	48.6695
0.0025704	48.8105
0.00258523	48.9519
0.00260016	49.0936
0.00261517	49.2358
0.00263027	49.3784
0.00264545	49.5214
0.00266073	49.6648
0.00267609	49.8087
0.00269153	49.9529
0.00270707	50.0976
0.0027227	50.2426
0.00273842	50.3881
0.00275423	50.534
0.00277013	50.6804
0.00278612	50.8271
0.00280221	50.9743
0.00281838	51.1219
0.00283465	51.2699
0.00285102	51.4184
0.00286748	51.5673
0.00288403	51.7166
0.00290068	51.8663
0.00291743	52.0165
0.00293427	52.1671
0.00295121	52.3181
0.00296825	52.4696
0.00298538	52.6215
0.00300262	52.7739
0.00301995	52.9267
0.00303739	53.0799
0.00305492	53.2336
0.00307256	53.3877
0.0030903	53.5422
0.00310814	53.6972
0.00312608	53.8527
0.00314413	54.0086
0.00316228	54.1649
0.00318053	54.3217
0.0031989	54.479
0.00321736	54.6367
0.00323594	54.7948
0.00325462	54.9534
0.00327341	55.1125
0.0032923	55.272
0.00331131	55.432
0.00333043	55.5925
0.00334965	55.7534
0.00336899	55.9148
0.00338844	56.0766
0.003408	56.2389
0.00342768	56.4017
0.00344747	56.5649
0.00346737	56.7287
0.00348739	56.8928
0.00350752	57.0575
0.00352777	57.2226
0.00354813	57.3883
0.00356862	57.5543
0.00358922	57.7209
0.00360994	57.888
0.00363078	58.0555
0.00365174	58.2235
0.00367282	58.392
0.00369403	58.561
0.00371535	58.7304
0.0037368	58.9004
0.00375837	59.0709
0.00378007	59.2418
0.00380189	59.4132
0.00382384	59.5852
0.00384592	59.7576
0.00386812	59.9305
0.00389045	60.1039
0.00391291	60.2778
0.0039355	60.4522
0.00395822	60.6272
0.00398107	60.8026
0.00400405	60.9785
0.00402717	61.155
0.00405042	61.3319
0.0040738	61.5094
0.00409732	61.6873
0.00412098	61.8658
0.00414477	62.0448
0.00416869	62.2243
0.00419276	62.4043
0.00421697	62.5849
0.00424131	62.766
0.0042658	62.9475
0.00429042	63.1297
0.00431519	63.3123
0.0043401	63.4955
0.00436516	63.6791
0.00439036	63.8634
0.0044157	64.0481
0.0044412	64.2334
0.00446684	64.4192
0.00449262	64.6056
0.00451856	64.7925
0.00454465	64.9799
0.00457088	65.1679
0.00459727	65.3564
0.00462381	65.5454
0.0046505	65.735
0.00467735	65.9252
0.00470435	66.1159
0.00473151	66.3071
0.00475883	66.4989
0.0047863	66.6913
0.00481393	66.8842
0.00484172	67.0776
0.00486968	67.2717
0.00489779	67.4662
0.00492606	67.6614
0.0049545	67.8571
0.0049831	68.0533
0.00501187	68.2502
0.00504081	68.4476
0.00506991	68.6455
0.00509918	68.8441
0.00512861	69.0432
0.00515822	69.2429
0.005188	69.4431
0.00521795	69.644
0.00524807	69.8454
0.00527837	70.0474
0.00530884	70.2499
0.00533949	70.4531
0.00537032	70.6568
0.00540132	70.8612
0.0054325	71.0661
0.00546387	71.2716
0.00549541	71.4777
0.00552713	71.6844
0.00555904	71.8917
0.00559114	72.0996
0.00562341	72.3081
0.00565588	72.5172
0.00568853	72.7269
0.00572137	72.9372
0.0057544	73.1481
0.00578762	73.3596
0.00582103	73.5717
0.00585464	73.7845
0.00588844	73.9978
0.00592243	74.2118
0.00595662	74.4264
0.00599101	74.6416
0.0060256	74.8574
0.00606038	75.0738
0.00609537	75.2909
0.00613056	75.5086
0.00616595	75.7269
0.00620155	75.9459
0.00623735	76.1654
0.00627336	76.3856
0.00630957	76.6065
0.006346	76.828
0.00638263	77.0501
0.00641948	77.2729
0.00645654	77.4963
0.00649382	77.7203
0.00653131	77.945
0.00656901	78.1703
0.00660693	78.3963
0.00664508	78.623
0.00668344	78.8503
0.00672202	79.0782
0.00676083	79.3068
0.00679986	79.5361
0.00683912	79.766
0.0068786	79.9966
0.00691831	80.2279
0.00695825	80.4598
0.00699842	80.6924
0.00703882	80.9256
0.00707946	81.1596
0.00712033	81.3942
0.00716143	81.6295
0.00720278	81.8654
0.00724436	82.1021
0.00728618	82.3394
0.00732825	82.5774
0.00737055	82.8161
0.0074131	83.0555
0.0074559	83.2955
0.00749894	83.5363
0.00754223	83.7778
0.00758578	84.0199
0.00762957	84.2628
0.00767361	84.5063
0.00771792	84.7506
0.00776247	84.9955
0.00780728	85.2412
0.00785236	85.4876
0.00789769	85.7347
0.00794328	85.9824
0.00798914	86.231
0.00803526	86.4802
0.00808165	86.7301
0.00812831	86.9808
0.00817523	87.2322
0.00822243	87.4843
0.0082699	87.7371
0.00831764	87.9907
0.00836566	88.245
0.00841395	88.5
0.00846253	88.7558
0.00851138	89.0123
0.00856052	89.2695
0.00860994	89.5275
0.00865964	89.7862
0.00870964	90.0457
0.00875992	90.3059
0.00881049	90.5669
0.00886135	90.8286
0.00891251	91.0911
0.00896396	91.3543
0.00901571	91.6183
0.00906776	91.8831
0.00912011	92.1486
0.00917276	92.4149
0.00922571	92.6819
0.00927897	92.9497
0.00933254	93.2183
0.00938642	93.4877
0.00944061	94.2469
0.00949511	94.5185
0.00954993	94.7909
0.00960506	95.064
0.00966051	95.3379
0.00971628	95.6127
0.00977237	95.8882
0.00982879	96.1645
0.00988553	96.4416
0.0099426	96.7195
0.01	96.9982
0.0100577	97.2778
0.0101158	97.5581
0.0101742	97.8392
0.0102329	98.1211
0.010292	98.4039
0.0103514	98.6874
0.0104112	98.9718
0.0104713	99.257
0.0105317	99.543
0.0105925	99.8299
0.0106537	100.118
0.0107152	100.406
0.0107771	100.695
0.0108393	100.986
0.0109018	101.277
0.0109648	101.568
0.0110281	101.861
0.0110917	102.155
0.0111558	102.449
0.0112202	102.744
0.011285	103.04
0.0113501	103.337
0.0114156	103.635
0.0114815	103.934
0.0115478	104.233
0.0116145	104.533
0.0116815	104.835
0.011749	105.137
0.0118168	105.44
0.011885	105.744
0.0119536	106.048
0.0120226	106.354
0.0120921	106.66
0.0121619	106.968
0.0122321	107.276
0.0123027	107.585
0.0123737	107.895
0.0124451	108.206
0.012517	108.518
0.0125893	108.83
0.0126619	109.144
0.012735	109.459
0.0128086	109.774
0.0128825	110.09
0.0129569	110.407
0.0130317	110.726
0.0131069	111.045
0.0131826	111.365
0.0132587	111.686
0.0133352	112.007
0.0134122	112.33
0.0134896	112.654
0.0135675	112.978
0.0136458	113.304
0.0137246	113.63
0.0138038	113.958
0.0138835	114.286
0.0139637	114.616
0.0140443	114.946
0.0141254	115.277
0.0142069	115.609
0.0142889	115.942
0.0143714	116.276
0.0144544	116.611
0.0145378	116.947
0.0146218	117.284
0.0147062	117.622
0.0147911	117.961
0.0148765	118.301
0.0149624	118.642
0.0150487	118.984
0.0151356	119.327
0.015223	119.671
0.0153109	120.015
0.0153993	120.361
0.0154882	120.708
0.0155776	121.056
0.0156675	121.405
0.015758	121.755
0.0158489	122.105
0.0159404	122.457
0.0160325	122.81
0.016125	123.164
0.0162181	123.519
0.0163117	123.875
0.0164059	124.232
0.0165006	124.59
0.0165959	124.949
0.0166917	125.309
0.016788	125.67
0.016885	126.032
0.0169824	126.395
0.0170805	126.759
0.0171791	127.124
0.0172783	127.491
0.017378	127.858
0.0174783	128.227
0.0175792	128.596
0.0176807	128.967
0.0177828	129.338
0.0178855	129.711
0.0179887	130.085
0.0180926	130.459
0.018197	130.835
0.0183021	131.212
0.0184077	131.59
0.018514	131.969
0.0186209	132.35
0.0187284	132.731
0.0188365	133.114
0.0189452	133.497
0.0190546	133.882
0.0191646	134.267
0.0192752	134.654
0.0193865	135.042
0.0194984	135.431
0.019611	135.822
0.0197242	136.213
0.0198381	136.605
0.0199526	136.999
0.0200678	137.394
0.0201837	137.79
0.0203002	138.187
0.0204174	138.585
0.0205353	138.984
0.0206538	139.385
0.020773	139.786
0.020893	140.189
0.0210136	140.593
0.0211349	140.998
0.0212569	141.404
0.0213796	141.812
0.021503	142.22
0.0216272	142.63
0.021752	143.041
0.0218776	143.453
0.0220039	143.867
0.0221309	144.281
0.0222587	144.697
0.0223872	145.114
0.0225165	145.532
0.0226464	145.951
0.0227772	146.372
0.0229087	146.793
0.0230409	147.216
0.0231739	147.64
0.0233077	148.066
0.0234423	148.492
0.0235776	148.92
0.0237137	149.349
0.0238506	149.78
0.0239883	150.211
0.0241268	150.644
0.0242661	151.078
0.0244062	151.513
0.0245471	151.95
0.0246888	152.388
0.0248313	152.827
0.0249747	153.267
0.0251189	153.709
0.0252639	154.152
0.0254097	154.596
0.0255564	155.041
0.025704	155.488
0.0258523	155.936
0.0260016	156.385
0.0261517	156.836
0.0263027	157.288
0.0264545	157.741
0.0266073	158.195
0.0267609	158.651
0.0269153	159.108
0.0270707	159.566
0.027227	160.026
0.0273842	160.487
0.0275423	160.95
0.0277013	161.413
0.0278612	161.878
0.0280221	162.345
0.0281838	162.813
0.0283465	163.282
0.0285102	163.752
0.0286748	164.224
0.0288403	164.697
0.0290068	165.172
0.0291743	165.647
0.0293427	166.125
0.0295121	166.603
0.0296825	167.083
0.0298538	167.565
0.0300262	168.047
0.0301995	168.532
0.0303739	169.017
0.0305492	169.504
0.0307256	169.992
0.030903	170.482
0.0310814	170.973
0.0312608	171.466
0.0314413	171.96
0.0316228	172.455
0.0318053	172.952
0.031989	173.451
0.0321736	173.95
0.0323594	174.451
0.0325462	174.954
0.0327341	175.458
0.032923	175.964
0.0331131	176.471
0.0333043	176.979
0.0334965	177.489
0.0336899	178
0.0338844	178.513
0.03408	179.027
0.0342768	179.543
0.0344747	180.06
0.0346737	180.579
0.0348739	181.099
0.0350752	181.621
0.0352777	182.144
0.0354813	182.669
0.0356862	183.195
0.0358922	183.723
0.0360994	184.252
0.0363078	184.783
0.0365174	185.316
0.0367282	185.85
0.0369403	186.385
0.0371535	186.922
0.037368	187.46
0.0375837	188
0.0378007	188.542
0.0380189	189.085
0.0382384	189.63
0.0384592	190.176
0.0386812	190.724
0.0389045	191.274
0.0391291	191.825
0.039355	192.377
0.0395822	192.932
0.0398107	193.487
0.0400405	194.045
0.0402717	194.604
0.0405042	195.164
0.040738	195.727
0.0409732	196.291
0.0412098	196.856
0.0414477	197.423
0.0416869	197.992
0.0419276	198.562
0.0421697	199.134
0.0424131	199.708
0.042658	200.283
0.0429042	200.86
0.0431519	201.439
0.043401	202.019
0.0436516	202.601
0.0439036	203.185
0.044157	203.77
0.044412	204.357
0.0446684	204.946
0.0449262	205.536
0.0451856	206.129
0.0454465	206.722
0.0457088	207.318
0.0459727	207.915
0.0462381	208.514
0.046505	209.115
0.0467735	209.717
0.0470435	210.321
0.0473151	210.927
0.0475883	211.535
0.047863	212.144
0.0481393	212.755
0.0484172	213.368
0.0486968	213.983
0.0489779	214.599
0.0492606	215.218
0.049545	215.838
0.049831	216.459
0.0501187	217.083
0.0504081	217.708
0.0506991	218.335
0.0509918	218.964
0.0512861	219.595
0.0515822	220.228
0.05188	220.862
0.0521795	221.498
0.0524807	222.136
0.0527837	222.776
0.0530884	223.418
0.0533949	224.062
0.0537032	224.707
0.0540132	225.354
0.054325	226.004
0.0546387	226.655
0.0549541	227.307
0.0552713	227.962
0.0555904	228.619
0.0559114	229.278
0.0562341	229.938
0.0565588	230.6
0.0568853	231.265
0.0572137	231.931
0.057544	232.599
0.0578762	233.269
0.0582103	233.941
0.0585464	234.615
0.0588844	235.291
0.0592243	235.968
0.0595662	236.648
0.0599101	237.33
0.060256	238.013
0.0606038	238.699
0.0609537	239.387
0.0613056	240.076
0.0616595	240.768
0.0620155	241.461
0.0623735	242.157
0.0627336	242.854
0.0630957	243.554
0.06346	244.255
0.0638263	244.959
0.0641948	245.665
0.0645654	246.372
0.0649382	247.082
0.0653131	247.794
0.0656901	248.507
0.0660693	249.223
0.0664508	249.941
0.0668344	250.661
0.0672202	251.383
0.0676083	252.107
0.0679986	252.833
0.0683912	253.562
0.068786	254.292
0.0691831	255.024
0.0695825	255.759
0.0699842	256.496
0.0703882	257.235
0.0707946	257.976
0.0712033	258.719
0.0716143	259.464
0.0720278	260.211
0.0724436	260.961
0.0728618	261.712
0.0732825	262.466
0.0737055	263.222
0.074131	263.98
0.074559	264.741
0.0749894	265.503
0.0754223	266.268
0.0758578	267.035
0.0762957	267.804
0.0767361	268.575
0.0771792	269.349
0.0776247	270.125
0.0780728	270.903
0.0785236	271.683
0.0789769	272.466
0.0794328	273.25
0.0798914	274.038
0.0803526	274.827
0.0808165	275.618
0.0812831	276.412
0.0817523	277.208
0.0822243	278.007
0.082699	278.808
0.0831764	279.611
0.0836566	280.416
0.0841395	281.224
0.0846253	282.034
0.0851138	282.846
0.0856052	283.661
0.0860994	284.478
0.0865964	285.297
0.0870964	286.119
0.0875992	286.943
0.0881049	287.769
0.0886135	288.598
0.0891251	289.429
0.0896396	290.263
0.0901571	291.099
0.0906776	291.937
0.0912011	292.778
0.0917276	293.621
0.0922571	294.467
0.0927897	295.315
0.0933254	296.166
0.0938642	297.019
0.0944061	297.874
0.0949511	298.732
0.0954993	299.592
0.0960506	300.455
0.0966051	301.321
0.0971628	302.188
0.0977237	303.059
0.0982879	303.931
0.0988553	304.807
0.099426	305.685
0.1	306.565
0.100577	307.448
0.101158	308.333
0.101742	309.221
0.102329	310.112
0.10292	311.005
0.103514	311.901
0.104112	312.799
0.104713	313.7
0.105317	314.603
0.105925	315.509
0.106537	316.418
0.107152	317.329
0.107771	318.243
0.108393	319.16
0.109018	320.079
0.109648	321.001
0.110281	321.925
0.110917	322.852
0.111558	323.782
0.112202	324.715
0.11285	325.65
0.113501	326.588
0.114156	327.528
0.114815	328.471
0.115478	329.417
0.116145	330.366
0.116815	331.317
0.11749	332.272
0.118168	333.228
0.11885	334.188
0.119536	335.151
0.120226	336.116
0.120921	337.084
0.121619	338.054
0.122321	339.028
0.123027	340.004
0.123737	340.983
0.124451	341.965
0.12517	342.95
0.125893	343.938
0.126619	344.928
0.12735	345.921
0.128086	346.918
0.128825	347.917
0.129569	348.919
0.130317	349.923
0.131069	350.931
0.131826	351.942
0.132587	352.955
0.133352	353.972
0.134122	354.991
0.134896	356.013
0.135675	357.038
0.136458	358.066
0.137246	359.098
0.138038	360.132
0.138835	361.169
0.139637	362.209
0.140443	363.252
0.141254	364.298
0.142069	365.347
0.142889	366.399
0.143714	367.454
0.144544	368.512
0.145378	369.573
0.146218	370.637
0.147062	371.705
0.147911	372.775
0.148765	373.848
0.149624	374.925
0.150487	376.005
0.151356	377.087
0.15223	378.173
0.153109	379.262
0.153993	380.354
0.154882	381.449
0.155776	382.548
0.156675	383.649
0.15758	384.754
0.158489	385.862
0.159404	386.973
0.160325	388.087
0.16125	389.205
0.162181	390.325
0.163117	391.449
0.164059	392.576
0.165006	393.707
0.165959	394.84
0.166917	395.977
0.16788	397.117
0.16885	398.261
0.169824	399.408
0.170805	400.558
0.171791	401.711
0.172783	402.868
0.17378	404.028
0.174783	405.191
0.175792	406.358
0.176807	407.528
0.177828	408.701
0.178855	409.878
0.179887	411.058
0.180926	412.241
0.18197	413.428
0.183021	414.619
0.184077	415.812
0.18514	417.01
0.186209	418.21
0.187284	419.414
0.188365	420.622
0.189452	421.833
0.190546	423.048
0.191646	424.266
0.192752	425.487
0.193865	426.712
0.194984	427.941
0.19611	429.173
0.197242	430.408
0.198381	431.648
0.199526	432.89
0.200678	434.137
0.201837	435.387
0.203002	436.64
0.204174	437.897
0.205353	439.158
0.206538	440.422
0.20773	441.69
0.20893	442.962
0.210136	444.237
0.211349	445.516
0.212569	446.799
0.213796	448.085
0.21503	449.375
0.216272	450.669
0.21752	451.966
0.218776	453.268
0.220039	454.573
0.221309	455.881
0.222587	457.194
0.223872	458.51
0.225165	459.83
0.226464	461.154
0.227772	462.481
0.229087	463.813
0.230409	465.148
0.231739	466.487
0.233077	467.83
0.234423	469.177
0.235776	470.527
0.237137	471.882
0.238506	473.24
0.239883	474.603
0.241268	475.969
0.242661	477.339
0.244062	478.713
0.245471	480.092
0.246888	481.474
0.248313	482.86
0.249747	484.25
0.251189	485.644
0.252639	487.042
0.254097	488.444
0.255564	489.85
0.25704	491.26
0.258523	492.674
0.260016	494.092
0.261517	495.515
0.263027	496.941
0.264545	498.372
0.266073	499.806
0.267609	501.245
0.269153	502.688
0.270707	504.135
0.27227	505.586
0.273842	507.041
0.275423	508.501
0.277013	509.965
0.278612	511.432
0.280221	512.905
0.281838	514.381
0.283465	515.862
0.285102	517.347
0.286748	518.836
0.288403	520.329
0.290068	521.827
0.291743	523.329
0.293427	524.835
0.295121	526.346
0.296825	527.861
0.298538	529.38
0.300262	530.904
0.301995	532.432
0.303739	533.965
0.305492	535.502
0.307256	537.043
0.30903	538.589
0.310814	540.139
0.312608	541.694
0.314413	543.253
0.316228	544.816
0.318053	546.385
0.31989	547.957
0.321736	549.534
0.323594	551.116
0.325462	552.702
0.327341	554.293
0.32923	555.888
0.331131	557.488
0.333043	559.093
0.334965	560.702
0.336899	562.316
0.338844	563.934
0.3408	565.557
0.342768	567.185
0.344747	568.817
0.346737	570.455
0.348739	572.096
0.350752	573.743
0.352777	575.394
0.354813	577.05
0.356862	578.711
0.358922	580.376
0.360994	582.047
0.363078	583.722
0.365174	585.402
0.367282	587.087
0.369403	588.776
0.371535	590.471
0.37368	592.17
0.375837	593.874
0.378007	595.583
0.380189	597.297
0.382384	599.016
0.384592	600.74
0.386812	602.469
0.389045	604.203
0.391291	605.941
0.39355	607.685
0.395822	609.434
0.398107	611.188
0.400405	612.947
0.402717	614.711
0.405042	616.48
0.40738	618.254
0.409732	620.033
0.412098	621.817
0.414477	623.606
0.416869	625.401
0.419276	627.201
0.421697	629.005
0.424131	630.816
0.42658	632.631
0.429042	634.451
0.431519	636.277
0.43401	638.108
0.436516	639.944
0.439036	641.786
0.44157	643.632
0.44412	645.484
0.446684	647.342
0.449262	649.204
0.451856	651.073
0.454465	652.946
0.457088	654.825
0.459727	656.709
0.462381	658.599
0.46505	660.494
0.467735	662.394
0.470435	664.3
0.473151	666.212
0.475883	668.128
0.47863	670.051
0.481393	671.979
0.484172	673.912
0.486968	675.851
0.489779	677.796
0.492606	679.746
0.49545	681.702
0.49831	683.663
0.501187	685.63
0.504081	687.603
0.506991	689.582
0.509918	691.566
0.512861	693.555
0.515822	695.551
0.5188	697.552
0.521795	699.559
0.524807	701.572
0.527837	703.59
0.530884	705.614
0.533949	707.645
0.537032	709.68
0.540132	711.722
0.54325	713.77
0.546387	715.823
0.549541	717.883
0.552713	719.948
0.555904	722.019
0.559114	724.097
0.562341	726.18
0.565588	728.269
0.568853	730.364
0.572137	732.465
0.57544	734.572
0.578762	736.686
0.582103	738.805
0.585464	740.93
0.588844	743.062
0.592243	745.2
0.595662	747.343
0.599101	749.493
0.60256	751.649
0.606038	753.812
0.609537	755.98
