Stopping power dEdx from Ionisation for Mn55[0.0] Z = 25 in Water, process name: ionIoni
E [MeV]	dEdx [MeV/mm]
0.001	23.5828
0.00100577	23.6512
0.00101158	23.7198
0.00101742	23.7886
0.00102329	23.8575
0.0010292	23.9267
0.00103514	23.9961
0.00104112	24.0656
0.00104713	24.1354
0.00105317	24.2054
0.00105925	24.2756
0.00106537	24.3459
0.00107152	24.4165
0.00107771	24.4873
0.00108393	24.5583
0.00109018	24.6295
0.00109648	24.7009
0.00110281	24.7725
0.00110917	24.8443
0.00111558	24.9163
0.00112202	24.9885
0.0011285	25.061
0.00113501	25.1336
0.00114156	25.2065
0.00114815	25.2795
0.00115478	25.3528
0.00116145	25.4263
0.00116815	25.5
0.0011749	25.5739
0.00118168	25.648
0.0011885	25.7223
0.00119536	25.7969
0.00120226	25.8716
0.00120921	25.9466
0.00121619	26.0218
0.00122321	26.0972
0.00123027	26.1728
0.00123737	26.2487
0.00124451	26.3248
0.0012517	26.401
0.00125893	26.4775
0.00126619	26.5543
0.0012735	26.6312
0.00128086	26.7084
0.00128825	26.7858
0.00129569	26.8634
0.00130317	26.9412
0.00131069	27.0193
0.00131826	27.0976
0.00132587	27.1761
0.00133352	27.2548
0.00134122	27.3338
0.00134896	27.413
0.00135675	27.4924
0.00136458	27.572
0.00137246	27.6519
0.00138038	27.732
0.00138835	27.8124
0.00139637	27.8929
0.00140443	27.9737
0.00141254	28.0548
0.00142069	28.136
0.00142889	28.2175
0.00143714	28.2993
0.00144544	28.3813
0.00145378	28.4635
0.00146218	28.5459
0.00147062	28.6286
0.00147911	28.7115
0.00148765	28.7947
0.00149624	28.8781
0.00150487	28.9617
0.00151356	29.0456
0.0015223	29.1297
0.00153109	29.2141
0.00153993	29.2987
0.00154882	29.3836
0.00155776	29.4687
0.00156675	29.554
0.0015758	29.6396
0.00158489	29.7255
0.00159404	29.8115
0.00160325	29.8979
0.0016125	29.9845
0.00162181	30.0713
0.00163117	30.1584
0.00164059	30.2457
0.00165006	30.3333
0.00165959	30.4211
0.00166917	30.5092
0.0016788	30.5976
0.0016885	30.6862
0.00169824	30.775
0.00170805	30.8641
0.00171791	30.9535
0.00172783	31.0431
0.0017378	31.133
0.00174783	31.2231
0.00175792	31.3135
0.00176807	31.4042
0.00177828	31.4951
0.00178855	31.5863
0.00179887	31.6778
0.00180926	31.7695
0.0018197	31.8615
0.00183021	31.9537
0.00184077	32.0462
0.0018514	32.139
0.00186209	32.232
0.00187284	32.3253
0.00188365	32.4189
0.00189452	32.5128
0.00190546	32.6069
0.00191646	32.7013
0.00192752	32.7959
0.00193865	32.8909
0.00194984	32.9861
0.0019611	33.0816
0.00197242	33.1773
0.00198381	33.2734
0.00199526	33.3697
0.00200678	33.4663
0.00201837	33.5631
0.00203002	33.6603
0.00204174	33.7577
0.00205353	33.8554
0.00206538	33.9534
0.0020773	34.0517
0.0020893	34.1502
0.00210136	34.2491
0.00211349	34.3482
0.00212569	34.4476
0.00213796	34.5473
0.0021503	34.6473
0.00216272	34.7476
0.0021752	34.8481
0.00218776	34.949
0.00220039	35.0501
0.00221309	35.1515
0.00222587	35.2533
0.00223872	35.3553
0.00225165	35.4576
0.00226464	35.5602
0.00227772	35.6631
0.00229087	35.7663
0.00230409	35.8698
0.00231739	35.9736
0.00233077	36.0777
0.00234423	36.1821
0.00235776	36.2868
0.00237137	36.3918
0.00238506	36.4971
0.00239883	36.6027
0.00241268	36.7086
0.00242661	36.8148
0.00244062	36.9213
0.00245471	37.0282
0.00246888	37.1353
0.00248313	37.2427
0.00249747	37.3505
0.00251189	37.4586
0.00252639	37.5669
0.00254097	37.6756
0.00255564	37.7846
0.0025704	37.8939
0.00258523	38.0036
0.00260016	38.1135
0.00261517	38.2238
0.00263027	38.3344
0.00264545	38.4453
0.00266073	38.5565
0.00267609	38.668
0.00269153	38.7799
0.00270707	38.8921
0.0027227	39.0046
0.00273842	39.1174
0.00275423	39.2306
0.00277013	39.344
0.00278612	39.4579
0.00280221	39.572
0.00281838	39.6865
0.00283465	39.8013
0.00285102	39.9164
0.00286748	40.0318
0.00288403	40.1476
0.00290068	40.2638
0.00291743	40.3802
0.00293427	40.497
0.00295121	40.6142
0.00296825	40.7316
0.00298538	40.8494
0.00300262	40.9676
0.00301995	41.0861
0.00303739	41.2049
0.00305492	41.3241
0.00307256	41.4436
0.0030903	41.5635
0.00310814	41.6837
0.00312608	41.8042
0.00314413	41.9251
0.00316228	42.0464
0.00318053	42.168
0.0031989	42.2899
0.00321736	42.4122
0.00323594	42.5349
0.00325462	42.6579
0.00327341	42.7812
0.0032923	42.905
0.00331131	43.029
0.00333043	43.1535
0.00334965	43.2782
0.00336899	43.4034
0.00338844	43.5289
0.003408	43.6548
0.00342768	43.781
0.00344747	43.9076
0.00346737	44.0346
0.00348739	44.1619
0.00350752	44.2896
0.00352777	44.4177
0.00354813	44.5461
0.00356862	44.6749
0.00358922	44.8041
0.00360994	44.9336
0.00363078	45.0636
0.00365174	45.1939
0.00367282	45.3245
0.00369403	45.4556
0.00371535	45.587
0.0037368	45.7188
0.00375837	45.851
0.00378007	45.9835
0.00380189	46.1165
0.00382384	46.2498
0.00384592	46.3835
0.00386812	46.5176
0.00389045	46.6521
0.00391291	46.787
0.0039355	46.9223
0.00395822	47.0579
0.00398107	47.194
0.00400405	47.3304
0.00402717	47.4672
0.00405042	47.6045
0.0040738	47.7421
0.00409732	47.8801
0.00412098	48.0185
0.00414477	48.1573
0.00416869	48.2965
0.00419276	48.4361
0.00421697	48.5762
0.00424131	48.7166
0.0042658	48.8574
0.00429042	48.9986
0.00431519	49.1403
0.0043401	49.2823
0.00436516	49.4248
0.00439036	49.5676
0.0044157	49.7109
0.0044412	49.8546
0.00446684	49.9987
0.00449262	50.1432
0.00451856	50.2882
0.00454465	50.4335
0.00457088	50.5793
0.00459727	50.7255
0.00462381	50.8721
0.0046505	51.0192
0.00467735	51.1666
0.00470435	51.3145
0.00473151	51.4628
0.00475883	51.6116
0.0047863	51.7607
0.00481393	51.9103
0.00484172	52.0604
0.00486968	52.2108
0.00489779	52.3617
0.00492606	52.5131
0.0049545	52.6648
0.0049831	52.817
0.00501187	52.9697
0.00504081	53.1228
0.00506991	53.2763
0.00509918	53.4302
0.00512861	53.5847
0.00515822	53.7395
0.005188	53.8948
0.00521795	54.0506
0.00524807	54.2068
0.00527837	54.3634
0.00530884	54.5205
0.00533949	54.6781
0.00537032	53.5538
0.00540132	53.7085
0.0054325	53.8636
0.00546387	54.0191
0.00549541	54.1751
0.00552713	54.3315
0.00555904	54.4884
0.00559114	54.6458
0.00562341	54.8036
0.00565588	54.9618
0.00568853	55.1205
0.00572137	55.2797
0.0057544	55.4393
0.00578762	55.5994
0.00582103	55.76
0.00585464	55.921
0.00588844	56.0825
0.00592243	56.2445
0.00595662	56.4069
0.00599101	56.5698
0.0060256	56.7331
0.00606038	56.897
0.00609537	57.0613
0.00613056	57.2261
0.00616595	57.3913
0.00620155	57.5571
0.00623735	57.7233
0.00627336	57.89
0.00630957	58.0572
0.006346	58.2249
0.00638263	58.393
0.00641948	58.5617
0.00645654	58.7308
0.00649382	58.9004
0.00653131	59.0705
0.00656901	59.2411
0.00660693	59.4122
0.00664508	59.5838
0.00668344	59.7559
0.00672202	59.9285
0.00676083	60.1015
0.00679986	60.2751
0.00683912	60.4492
0.0068786	60.6238
0.00691831	60.7989
0.00695825	60.9745
0.00699842	61.1506
0.00703882	61.3272
0.00707946	61.5044
0.00712033	61.682
0.00716143	61.8602
0.00720278	62.0389
0.00724436	62.218
0.00728618	62.3978
0.00732825	62.578
0.00737055	62.7587
0.0074131	62.94
0.0074559	63.1218
0.00749894	63.3041
0.00754223	63.487
0.00758578	63.6704
0.00762957	63.8543
0.00767361	64.0387
0.00771792	64.2237
0.00776247	64.4092
0.00780728	64.5953
0.00785236	64.7819
0.00789769	64.969
0.00794328	65.1567
0.00798914	65.3449
0.00803526	65.5337
0.00808165	65.723
0.00812831	65.9128
0.00817523	66.1032
0.00822243	66.2942
0.0082699	66.4857
0.00831764	66.6778
0.00836566	66.8704
0.00841395	67.0636
0.00846253	67.2573
0.00851138	67.4516
0.00856052	67.6465
0.00860994	67.8419
0.00865964	68.0379
0.00870964	68.2344
0.00875992	68.4316
0.00881049	68.6293
0.00886135	68.8275
0.00891251	69.0264
0.00896396	69.2258
0.00901571	69.4258
0.00906776	69.6264
0.00912011	69.8275
0.00917276	70.0293
0.00922571	70.2316
0.00927897	70.4345
0.00933254	70.638
0.00938642	70.8421
0.00944061	71.0468
0.00949511	71.252
0.00954993	71.4579
0.00960506	71.6644
0.00966051	71.8714
0.00971628	72.0791
0.00977237	72.2873
0.00982879	72.4962
0.00988553	72.7057
0.0099426	72.9158
0.01	73.1264
0.0100577	73.3377
0.0101158	73.5496
0.0101742	73.7622
0.0102329	73.9753
0.010292	74.189
0.0103514	74.4034
0.0104112	74.6184
0.0104713	74.834
0.0105317	75.0503
0.0105925	75.2671
0.0106537	75.4846
0.0107152	75.7028
0.0107771	75.9215
0.0108393	76.1409
0.0109018	76.3609
0.0109648	76.5816
0.0110281	76.8029
0.0110917	77.0249
0.0111558	77.2474
0.0112202	77.4707
0.011285	77.6946
0.0113501	77.9191
0.0114156	78.1443
0.0114815	78.3701
0.0115478	78.5966
0.0116145	78.8237
0.0116815	79.0515
0.011749	79.28
0.0118168	79.5091
0.011885	79.7389
0.0119536	79.9693
0.0120226	80.2005
0.0120921	80.4322
0.0121619	80.6647
0.0122321	80.8978
0.0123027	81.1316
0.0123737	81.3661
0.0124451	81.6013
0.012517	81.8372
0.0125893	82.0737
0.0126619	82.3109
0.012735	82.5488
0.0128086	82.7874
0.0128825	83.0267
0.0129569	83.2667
0.0130317	83.5073
0.0131069	83.7487
0.0131826	83.9908
0.0132587	84.2336
0.0133352	84.477
0.0134122	84.7212
0.0134896	84.9661
0.0135675	85.2117
0.0136458	85.458
0.0137246	85.7051
0.0138038	85.9528
0.0138835	86.2013
0.0139637	86.4504
0.0140443	86.7003
0.0141254	86.951
0.0142069	87.2023
0.0142889	87.4544
0.0143714	87.7072
0.0144544	87.9608
0.0145378	88.2151
0.0146218	88.4701
0.0147062	88.7258
0.0147911	88.9823
0.0148765	89.2396
0.0149624	89.4976
0.0150487	89.7563
0.0151356	90.0158
0.015223	90.276
0.0153109	90.537
0.0153993	90.7988
0.0154882	91.0613
0.0155776	91.3246
0.0156675	91.5886
0.015758	91.8534
0.0158489	92.119
0.0159404	92.3853
0.0160325	92.6524
0.016125	92.9203
0.0162181	93.189
0.0163117	93.4584
0.0164059	93.7287
0.0165006	93.9997
0.0165959	94.2715
0.0166917	94.544
0.016788	94.8174
0.016885	95.0916
0.0169824	95.3665
0.0170805	95.6423
0.0171791	95.9189
0.0172783	96.1962
0.017378	96.4744
0.0174783	96.7534
0.0175792	97.0332
0.0176807	97.3137
0.0177828	97.5952
0.0178855	97.8774
0.0179887	98.1604
0.0180926	98.4443
0.018197	98.729
0.0183021	99.0145
0.0184077	99.3008
0.018514	99.588
0.0186209	99.876
0.0187284	100.165
0.0188365	100.455
0.0189452	100.745
0.0190546	101.036
0.0191646	101.329
0.0192752	101.622
0.0193865	101.916
0.0194984	102.21
0.019611	102.506
0.0197242	102.802
0.0198381	103.1
0.0199526	103.398
0.0200678	103.697
0.0201837	103.997
0.0203002	104.298
0.0204174	104.599
0.0205353	104.902
0.0206538	105.205
0.020773	105.51
0.020893	105.815
0.0210136	106.121
0.0211349	106.428
0.0212569	106.736
0.0213796	107.045
0.021503	107.354
0.0216272	107.665
0.021752	107.976
0.0218776	108.289
0.0220039	108.602
0.0221309	108.916
0.0222587	109.231
0.0223872	109.547
0.0225165	109.864
0.0226464	110.182
0.0227772	110.501
0.0229087	110.82
0.0230409	111.141
0.0231739	111.462
0.0233077	111.785
0.0234423	112.108
0.0235776	112.433
0.0237137	112.758
0.0238506	113.084
0.0239883	113.411
0.0241268	113.739
0.0242661	114.069
0.0244062	114.399
0.0245471	114.73
0.0246888	115.062
0.0248313	115.394
0.0249747	115.728
0.0251189	116.063
0.0252639	116.399
0.0254097	116.736
0.0255564	117.074
0.025704	117.412
0.0258523	117.752
0.0260016	118.093
0.0261517	118.435
0.0263027	118.777
0.0264545	119.121
0.0266073	119.466
0.0267609	119.812
0.0269153	120.158
0.0270707	120.506
0.027227	120.855
0.0273842	121.204
0.0275423	121.555
0.0277013	121.907
0.0278612	122.26
0.0280221	122.614
0.0281838	122.969
0.0283465	123.324
0.0285102	123.681
0.0286748	124.039
0.0288403	124.398
0.0290068	124.758
0.0291743	125.12
0.0293427	125.482
0.0295121	125.845
0.0296825	126.209
0.0298538	126.574
0.0300262	126.941
0.0301995	127.308
0.0303739	127.677
0.0305492	128.046
0.0307256	128.417
0.030903	128.789
0.0310814	129.162
0.0312608	129.535
0.0314413	129.91
0.0316228	130.286
0.0318053	130.664
0.031989	131.042
0.0321736	131.421
0.0323594	131.802
0.0325462	132.183
0.0327341	132.566
0.032923	132.95
0.0331131	133.335
0.0333043	133.721
0.0334965	134.108
0.0336899	134.496
0.0338844	134.886
0.03408	135.276
0.0342768	135.668
0.0344747	136.061
0.0346737	136.455
0.0348739	136.85
0.0350752	137.246
0.0352777	137.643
0.0354813	138.042
0.0356862	138.442
0.0358922	138.842
0.0360994	139.245
0.0363078	139.648
0.0365174	140.052
0.0367282	140.458
0.0369403	140.864
0.0371535	141.272
0.037368	141.682
0.0375837	142.092
0.0378007	142.503
0.0380189	142.916
0.0382384	143.33
0.0384592	143.745
0.0386812	144.161
0.0389045	144.579
0.0391291	144.998
0.039355	145.418
0.0395822	145.839
0.0398107	146.261
0.0400405	146.685
0.0402717	147.11
0.0405042	147.536
0.040738	147.963
0.0409732	148.392
0.0412098	148.822
0.0414477	149.253
0.0416869	149.685
0.0419276	150.119
0.0421697	150.553
0.0424131	150.99
0.042658	151.427
0.0429042	151.866
0.0431519	152.306
0.043401	152.747
0.0436516	153.189
0.0439036	153.633
0.044157	154.078
0.044412	154.525
0.0446684	154.972
0.0449262	155.421
0.0451856	155.872
0.0454465	156.323
0.0457088	156.776
0.0459727	157.23
0.0462381	157.686
0.046505	158.143
0.0467735	158.601
0.0470435	159.061
0.0473151	159.521
0.0475883	159.984
0.047863	160.447
0.0481393	160.912
0.0484172	161.379
0.0486968	161.846
0.0489779	162.315
0.0492606	162.786
0.049545	163.257
0.049831	163.73
0.0501187	164.205
0.0504081	164.681
0.0506991	165.158
0.0509918	165.637
0.0512861	166.117
0.0515822	166.598
0.05188	167.081
0.0521795	167.565
0.0524807	168.051
0.0527837	168.538
0.0530884	169.027
0.0533949	169.517
0.0537032	170.008
0.0540132	170.501
0.054325	170.995
0.0546387	171.491
0.0549541	171.988
0.0552713	172.486
0.0555904	172.986
0.0559114	173.488
0.0562341	173.991
0.0565588	174.495
0.0568853	175.001
0.0572137	175.509
0.057544	176.017
0.0578762	176.528
0.0582103	177.039
0.0585464	177.553
0.0588844	178.068
0.0592243	178.584
0.0595662	179.102
0.0599101	179.621
0.060256	180.142
0.0606038	180.664
0.0609537	181.188
0.0613056	181.713
0.0616595	182.24
0.0620155	182.769
0.0623735	183.299
0.0627336	183.83
0.0630957	184.363
0.06346	184.898
0.0638263	185.434
0.0641948	185.972
0.0645654	186.511
0.0649382	187.052
0.0653131	187.595
0.0656901	188.139
0.0660693	188.685
0.0664508	189.232
0.0668344	189.781
0.0672202	190.331
0.0676083	190.883
0.0679986	191.437
0.0683912	191.992
0.068786	192.549
0.0691831	193.108
0.0695825	193.668
0.0699842	194.23
0.0703882	194.793
0.0707946	195.358
0.0712033	195.925
0.0716143	196.493
0.0720278	197.064
0.0724436	197.635
0.0728618	198.209
0.0732825	198.784
0.0737055	199.36
0.074131	199.939
0.074559	200.519
0.0749894	201.101
0.0754223	201.684
0.0758578	202.27
0.0762957	202.856
0.0767361	203.445
0.0771792	204.035
0.0776247	204.628
0.0780728	205.221
0.0785236	205.817
0.0789769	206.414
0.0794328	207.013
0.0798914	207.614
0.0803526	208.217
0.0808165	208.821
0.0812831	209.427
0.0817523	210.035
0.0822243	210.644
0.082699	211.256
0.0831764	211.869
0.0836566	212.484
0.0841395	213.101
0.0846253	213.719
0.0851138	214.34
0.0856052	214.962
0.0860994	215.586
0.0865964	216.212
0.0870964	216.839
0.0875992	217.469
0.0881049	218.1
0.0886135	218.733
0.0891251	219.368
0.0896396	220.005
0.0901571	220.644
0.0906776	221.285
0.0912011	221.927
0.0917276	222.572
0.0922571	223.218
0.0927897	223.866
0.0933254	224.516
0.0938642	225.168
0.0944061	225.822
0.0949511	226.478
0.0954993	227.135
0.0960506	227.795
0.0966051	228.456
0.0971628	229.12
0.0977237	229.785
0.0982879	230.453
0.0988553	231.122
0.099426	231.793
0.1	232.467
0.100577	233.142
0.101158	233.819
0.101742	234.498
0.102329	235.179
0.10292	235.862
0.103514	236.548
0.104112	237.235
0.104713	237.924
0.105317	238.615
0.105925	239.308
0.106537	240.003
0.107152	240.701
0.107771	241.4
0.108393	242.101
0.109018	242.805
0.109648	243.51
0.110281	244.218
0.110917	244.927
0.111558	245.639
0.112202	246.353
0.11285	247.069
0.113501	247.787
0.114156	248.507
0.114815	249.229
0.115478	249.953
0.116145	250.68
0.116815	251.408
0.11749	252.139
0.118168	252.872
0.11885	253.607
0.119536	254.344
0.120226	255.083
0.120921	255.824
0.121619	256.568
0.122321	257.314
0.123027	258.062
0.123737	258.812
0.124451	259.564
0.12517	260.319
0.125893	261.076
0.126619	261.835
0.12735	262.596
0.128086	263.359
0.128825	264.125
0.129569	264.893
0.130317	265.663
0.131069	266.436
0.131826	267.21
0.132587	267.987
0.133352	268.767
0.134122	269.548
0.134896	270.332
0.135675	271.118
0.136458	271.907
0.137246	272.697
0.138038	273.49
0.138835	274.286
0.139637	275.084
0.140443	275.884
0.141254	276.686
0.142069	277.491
0.142889	278.298
0.143714	279.108
0.144544	279.919
0.145378	280.734
0.146218	281.55
0.147062	282.369
0.147911	283.191
0.148765	284.015
0.149624	284.841
0.150487	285.67
0.151356	286.501
0.15223	287.335
0.153109	288.171
0.153993	289.009
0.154882	289.85
0.155776	290.693
0.156675	291.539
0.15758	292.388
0.158489	293.239
0.159404	294.092
0.160325	294.948
0.16125	295.806
0.162181	296.667
0.163117	297.531
0.164059	298.397
0.165006	299.265
0.165959	300.136
0.166917	301.01
0.16788	301.886
0.16885	302.765
0.169824	303.646
0.170805	304.53
0.171791	305.417
0.172783	306.306
0.17378	307.198
0.174783	308.092
0.175792	308.989
0.176807	309.889
0.177828	310.791
0.178855	311.696
0.179887	312.604
0.180926	313.514
0.18197	314.427
0.183021	315.343
0.184077	316.261
0.18514	317.182
0.186209	318.106
0.187284	319.032
0.188365	319.962
0.189452	320.894
0.190546	321.828
0.191646	322.766
0.192752	323.706
0.193865	324.649
0.194984	325.595
0.19611	326.543
0.197242	327.494
0.198381	328.448
0.199526	329.405
0.200678	330.365
0.201837	331.328
0.203002	332.293
0.204174	333.261
0.205353	334.232
0.206538	335.206
0.20773	336.183
0.20893	337.163
0.210136	338.145
0.211349	339.131
0.212569	340.119
0.213796	341.11
0.21503	342.105
0.216272	343.102
0.21752	344.102
0.218776	345.105
0.220039	346.111
0.221309	347.12
0.222587	348.132
0.223872	349.147
0.225165	350.164
0.226464	351.185
0.227772	352.209
0.229087	353.236
0.230409	354.266
0.231739	355.299
0.233077	356.335
0.234423	357.374
0.235776	358.416
0.237137	359.461
0.238506	360.51
0.239883	361.561
0.241268	362.616
0.242661	363.673
0.244062	364.734
0.245471	365.798
0.246888	366.865
0.248313	367.935
0.249747	369.008
0.251189	370.085
0.252639	371.164
0.254097	372.247
0.255564	373.333
0.25704	374.422
0.258523	375.515
0.260016	376.61
0.261517	377.709
0.263027	378.811
0.264545	379.917
0.266073	381.026
0.267609	382.137
0.269153	383.253
0.270707	384.371
0.27227	385.493
0.273842	386.618
0.275423	387.747
0.277013	388.878
0.278612	390.013
0.280221	391.152
0.281838	392.294
0.283465	393.439
0.285102	394.588
0.286748	395.74
0.288403	396.895
0.290068	398.054
0.291743	399.216
0.293427	400.382
0.295121	401.551
0.296825	402.723
0.298538	403.899
0.300262	405.079
0.301995	406.262
0.303739	407.448
0.305492	408.638
0.307256	409.832
0.30903	411.029
0.310814	412.23
0.312608	413.434
0.314413	414.642
0.316228	415.853
0.318053	417.068
0.31989	418.286
0.321736	419.508
0.323594	420.734
0.325462	421.963
0.327341	423.196
0.32923	424.433
0.331131	425.673
0.333043	426.917
0.334965	428.165
0.336899	429.416
0.338844	430.671
0.3408	431.93
0.342768	433.192
0.344747	434.459
0.346737	435.729
0.348739	437.002
0.350752	438.28
0.352777	439.561
0.354813	440.846
0.356862	442.135
0.358922	443.428
0.360994	444.724
0.363078	446.025
0.365174	447.329
0.367282	448.637
0.369403	449.949
0.371535	451.265
0.37368	452.585
0.375837	453.908
0.378007	455.236
0.380189	456.568
0.382384	457.903
0.384592	459.243
0.386812	460.586
0.389045	461.933
0.391291	463.285
0.39355	464.64
0.395822	466
0.398107	467.363
0.400405	468.731
0.402717	470.102
0.405042	471.478
0.40738	472.858
0.409732	474.242
0.412098	475.63
0.414477	477.022
0.416869	478.418
0.419276	479.818
0.421697	481.223
0.424131	482.631
0.42658	484.044
0.429042	485.461
0.431519	486.883
0.43401	488.308
0.436516	489.738
0.439036	491.172
0.44157	492.61
0.44412	494.053
0.446684	495.499
0.449262	496.951
0.451856	498.406
0.454465	499.866
0.457088	501.33
0.459727	502.798
0.462381	504.271
0.46505	505.748
0.467735	507.23
0.470435	508.716
0.473151	510.206
0.475883	511.701
0.47863	513.2
0.481393	514.704
0.484172	516.212
0.486968	517.725
0.489779	519.242
0.492606	520.764
0.49545	522.29
0.49831	523.821
0.501187	525.357
0.504081	526.897
0.506991	528.441
0.509918	529.99
0.512861	531.544
0.515822	533.102
0.5188	534.665
0.521795	536.233
0.524807	537.805
0.527837	539.383
0.530884	540.964
0.533949	542.551
0.537032	544.142
0.540132	545.738
0.54325	547.339
0.546387	548.944
0.549541	550.554
0.552713	552.169
0.555904	553.789
0.559114	555.414
0.562341	557.043
0.565588	558.678
0.568853	560.317
0.572137	561.961
0.57544	563.61
0.578762	565.264
0.582103	566.923
0.585464	568.587
0.588844	570.256
0.592243	571.93
0.595662	573.609
0.599101	575.292
0.60256	576.981
0.606038	578.675
0.609537	580.374
