Stopping power dEdx from Ionisation for Na23[0.0] Z = 11 in G4_Si, process name: ionIoni
E [MeV]	dEdx [MeV/mm]
0.001	32.1506
0.00100577	32.244
0.00101158	32.3377
0.00101742	32.4316
0.00102329	32.5259
0.0010292	32.6204
0.00103514	32.7152
0.00104112	32.8102
0.00104713	32.9056
0.00105317	33.0012
0.00105925	33.097
0.00106537	33.1932
0.00107152	33.2896
0.00107771	33.3863
0.00108393	33.4833
0.00109018	33.5806
0.00109648	33.6781
0.00110281	33.776
0.00110917	33.8741
0.00111558	33.9725
0.00112202	34.0712
0.0011285	34.1701
0.00113501	34.2694
0.00114156	34.3689
0.00114815	34.4687
0.00115478	34.5688
0.00116145	34.6692
0.00116815	34.7699
0.0011749	34.8709
0.00118168	34.9722
0.0011885	35.0737
0.00119536	35.1756
0.00120226	35.2777
0.00120921	35.3802
0.00121619	35.4829
0.00122321	35.5859
0.00123027	35.6893
0.00123737	35.7929
0.00124451	35.8968
0.0012517	36.001
0.00125893	36.1056
0.00126619	36.2104
0.0012735	36.3155
0.00128086	36.421
0.00128825	36.5267
0.00129569	36.6327
0.00130317	36.7391
0.00131069	36.8457
0.00131826	36.9527
0.00132587	37.06
0.00133352	37.1675
0.00134122	37.2754
0.00134896	37.3836
0.00135675	37.4921
0.00136458	37.601
0.00137246	37.7101
0.00138038	37.8195
0.00138835	37.9293
0.00139637	38.0394
0.00140443	38.1498
0.00141254	38.2605
0.00142069	38.3716
0.00142889	38.4829
0.00143714	38.5946
0.00144544	38.7066
0.00145378	38.8189
0.00146218	38.9316
0.00147062	39.0445
0.00147911	39.1578
0.00148765	39.2715
0.00149624	39.3854
0.00150487	39.4997
0.00151356	39.6143
0.0015223	39.7292
0.00153109	39.8445
0.00153993	39.9601
0.00154882	40.0761
0.00155776	40.1923
0.00156675	40.3089
0.0015758	40.4259
0.00158489	40.5432
0.00159404	40.6608
0.00160325	40.7787
0.0016125	40.897
0.00162181	41.0157
0.00163117	41.1346
0.00164059	41.254
0.00165006	41.3736
0.00165959	41.4936
0.00166917	41.614
0.0016788	41.7347
0.0016885	41.8558
0.00169824	41.9772
0.00170805	42.0989
0.00171791	42.221
0.00172783	42.3435
0.0017378	42.4663
0.00174783	42.5894
0.00175792	42.713
0.00176807	42.8368
0.00177828	42.9611
0.00178855	43.0856
0.00179887	43.2106
0.00180926	43.3359
0.0018197	43.4616
0.00183021	43.5876
0.00184077	43.714
0.0018514	43.8407
0.00186209	43.9679
0.00187284	44.0954
0.00188365	44.2232
0.00189452	44.3514
0.00190546	44.48
0.00191646	44.609
0.00192752	44.7383
0.00193865	44.868
0.00194984	44.9981
0.0019611	45.1286
0.00197242	45.2594
0.00198381	45.3906
0.00199526	45.5222
0.00200678	45.6542
0.00201837	45.7865
0.00203002	45.9193
0.00204174	46.0524
0.00205353	46.1859
0.00206538	46.3198
0.0020773	46.454
0.0020893	46.5887
0.00210136	46.7237
0.00211349	46.8592
0.00212569	46.995
0.00213796	47.1312
0.0021503	47.2678
0.00216272	47.4048
0.0021752	47.5422
0.00218776	47.68
0.00220039	47.8182
0.00221309	47.9568
0.00222587	48.0958
0.00223872	48.2351
0.00225165	48.3749
0.00226464	48.5151
0.00227772	48.6557
0.00229087	48.7967
0.00230409	48.9381
0.00231739	49.0799
0.00233077	49.2222
0.00234423	49.3648
0.00235776	49.5078
0.00237137	49.6513
0.00238506	49.7952
0.00239883	49.9395
0.00241268	50.0842
0.00242661	50.2293
0.00244062	50.3748
0.00245471	50.5208
0.00246888	50.6671
0.00248313	50.8139
0.00249747	50.9612
0.00251189	51.1088
0.00252639	51.2569
0.00254097	51.4054
0.00255564	51.5543
0.0025704	51.7037
0.00258523	51.8535
0.00260016	52.0037
0.00261517	52.1543
0.00263027	52.3054
0.00264545	52.4569
0.00266073	52.6089
0.00267609	52.7613
0.00269153	52.9141
0.00270707	53.0674
0.0027227	53.2211
0.00273842	53.3753
0.00275423	53.5299
0.00277013	53.6849
0.00278612	53.8404
0.00280221	53.9964
0.00281838	54.1528
0.00283465	54.3096
0.00285102	54.4669
0.00286748	54.6247
0.00288403	54.7829
0.00290068	54.9415
0.00291743	55.1007
0.00293427	55.2602
0.00295121	55.4203
0.00296825	55.5808
0.00298538	55.7417
0.00300262	55.9032
0.00301995	56.065
0.00303739	56.2274
0.00305492	56.3902
0.00307256	56.5535
0.0030903	56.7173
0.00310814	56.8815
0.00312608	57.0462
0.00314413	57.2114
0.00316228	57.3771
0.00318053	57.5432
0.0031989	57.7098
0.00321736	57.8769
0.00323594	58.0445
0.00325462	58.2126
0.00327341	58.3811
0.0032923	58.5502
0.00331131	58.7197
0.00333043	58.8897
0.00334965	59.0602
0.00336899	59.2312
0.00338844	59.4027
0.003408	59.5746
0.00342768	59.7471
0.00344747	59.9201
0.00346737	60.0936
0.00348739	60.2675
0.00350752	60.442
0.00352777	60.617
0.00354813	60.7925
0.00356862	60.9684
0.00358922	61.1449
0.00360994	61.3219
0.00363078	61.4994
0.00365174	61.6775
0.00367282	61.856
0.00369403	62.035
0.00371535	62.2146
0.0037368	62.3947
0.00375837	62.5753
0.00378007	62.7564
0.00380189	62.9381
0.00382384	63.1202
0.00384592	63.3029
0.00386812	63.4861
0.00389045	63.6699
0.00391291	63.8542
0.0039355	64.039
0.00395822	64.2243
0.00398107	64.4102
0.00400405	64.5966
0.00402717	64.7836
0.00405042	64.971
0.0040738	65.1591
0.00409732	65.3476
0.00412098	65.5368
0.00414477	65.7264
0.00416869	65.9166
0.00419276	66.1074
0.00421697	66.2987
0.00424131	66.4905
0.0042658	66.6829
0.00429042	66.8759
0.00431519	67.0694
0.0043401	67.2635
0.00436516	67.4581
0.00439036	67.6533
0.0044157	67.8491
0.0044412	68.0454
0.00446684	68.2423
0.00449262	68.4398
0.00451856	68.6378
0.00454465	68.8364
0.00457088	69.0356
0.00459727	69.2353
0.00462381	69.4356
0.0046505	69.6365
0.00467735	69.838
0.00470435	70.04
0.00473151	70.2427
0.00475883	70.4459
0.0047863	70.6497
0.00481393	70.8541
0.00484172	71.0591
0.00486968	71.2647
0.00489779	71.4708
0.00492606	71.6776
0.0049545	71.885
0.0049831	72.0929
0.00501187	72.3015
0.00504081	72.5106
0.00506991	72.7204
0.00509918	72.9308
0.00512861	73.1417
0.00515822	73.3533
0.005188	73.5655
0.00521795	73.7783
0.00524807	73.9917
0.00527837	74.2057
0.00530884	74.4204
0.00533949	74.6357
0.00537032	74.8515
0.00540132	75.068
0.0054325	75.2852
0.00546387	75.5029
0.00549541	75.7213
0.00552713	75.9403
0.00555904	76.16
0.00559114	76.3803
0.00562341	76.6012
0.00565588	76.8227
0.00568853	77.0449
0.00572137	77.2677
0.0057544	77.4912
0.00578762	77.7153
0.00582103	77.9401
0.00585464	78.1655
0.00588844	78.3916
0.00592243	78.6183
0.00595662	78.8456
0.00599101	79.0737
0.0060256	79.3023
0.00606038	79.5317
0.00609537	79.7617
0.00613056	79.9923
0.00616595	80.2237
0.00620155	80.4556
0.00623735	80.6883
0.00627336	80.9216
0.00630957	81.1556
0.006346	81.3903
0.00638263	81.6257
0.00641948	81.8617
0.00645654	82.0984
0.00649382	82.3358
0.00653131	82.5739
0.00656901	82.8127
0.00660693	83.0521
0.00664508	83.2923
0.00668344	83.5331
0.00672202	83.7746
0.00676083	84.0169
0.00679986	84.2598
0.00683912	84.5034
0.0068786	84.7477
0.00691831	84.9928
0.00695825	85.2385
0.00699842	85.485
0.00703882	85.7321
0.00707946	85.98
0.00712033	86.2286
0.00716143	86.4779
0.00720278	86.7279
0.00724436	86.9786
0.00728618	87.2301
0.00732825	87.4823
0.00737055	87.7352
0.0074131	87.9888
0.0074559	88.2432
0.00749894	88.4983
0.00754223	88.7542
0.00758578	89.0107
0.00762957	89.2681
0.00767361	89.5261
0.00771792	89.7849
0.00776247	90.0445
0.00780728	90.3048
0.00785236	90.5658
0.00789769	90.8276
0.00794328	91.0902
0.00798914	91.3535
0.00803526	91.6176
0.00808165	91.8824
0.00812831	92.148
0.00817523	92.4144
0.00822243	92.6815
0.0082699	92.9494
0.00831764	93.2181
0.00836566	93.4875
0.00841395	93.7577
0.00846253	94.0287
0.00851138	94.3005
0.00856052	94.5731
0.00860994	94.8464
0.00865964	95.1206
0.00870964	95.3955
0.00875992	95.6712
0.00881049	95.9477
0.00886135	96.2251
0.00891251	96.5032
0.00896396	96.7821
0.00901571	97.0618
0.00906776	97.3423
0.00912011	97.6237
0.00917276	97.9058
0.00922571	98.1888
0.00927897	98.4725
0.00933254	98.7571
0.00938642	99.0425
0.00944061	99.3288
0.00949511	99.6158
0.00954993	99.9037
0.00960506	100.192
0.00966051	100.482
0.00971628	100.772
0.00977237	101.064
0.00982879	101.356
0.00988553	101.649
0.0099426	101.942
0.01	102.237
0.0100577	102.532
0.0101158	102.829
0.0101742	103.126
0.0102329	103.424
0.010292	103.723
0.0103514	104.022
0.0104112	104.323
0.0104713	104.624
0.0105317	105.189
0.0105925	105.493
0.0106537	105.797
0.0107152	106.102
0.0107771	106.407
0.0108393	106.714
0.0109018	107.022
0.0109648	107.33
0.0110281	107.64
0.0110917	107.95
0.0111558	108.261
0.0112202	108.573
0.011285	108.886
0.0113501	109.2
0.0114156	109.515
0.0114815	109.83
0.0115478	110.147
0.0116145	110.464
0.0116815	110.783
0.011749	111.102
0.0118168	111.422
0.011885	111.743
0.0119536	112.066
0.0120226	112.389
0.0120921	112.712
0.0121619	113.037
0.0122321	113.363
0.0123027	113.69
0.0123737	114.018
0.0124451	114.346
0.012517	114.676
0.0125893	115.006
0.0126619	115.338
0.012735	115.67
0.0128086	116.004
0.0128825	116.338
0.0129569	116.673
0.0130317	117.01
0.0131069	117.347
0.0131826	117.685
0.0132587	118.024
0.0133352	118.365
0.0134122	118.706
0.0134896	119.048
0.0135675	119.391
0.0136458	119.735
0.0137246	120.08
0.0138038	120.426
0.0138835	120.774
0.0139637	121.122
0.0140443	121.471
0.0141254	121.821
0.0142069	122.172
0.0142889	122.524
0.0143714	122.877
0.0144544	123.232
0.0145378	123.587
0.0146218	123.943
0.0147062	124.3
0.0147911	124.659
0.0148765	125.018
0.0149624	125.378
0.0150487	125.74
0.0151356	126.102
0.015223	126.465
0.0153109	126.83
0.0153993	127.196
0.0154882	127.562
0.0155776	127.93
0.0156675	128.299
0.015758	128.668
0.0158489	129.039
0.0159404	129.411
0.0160325	129.784
0.016125	130.158
0.0162181	130.534
0.0163117	130.91
0.0164059	131.287
0.0165006	131.666
0.0165959	132.045
0.0166917	132.426
0.016788	132.807
0.016885	133.19
0.0169824	133.574
0.0170805	133.959
0.0171791	134.345
0.0172783	134.732
0.017378	135.121
0.0174783	135.51
0.0175792	135.901
0.0176807	136.293
0.0177828	136.685
0.0178855	137.079
0.0179887	137.474
0.0180926	137.871
0.018197	138.268
0.0183021	138.667
0.0184077	139.066
0.018514	139.467
0.0186209	139.869
0.0187284	140.272
0.0188365	140.677
0.0189452	141.082
0.0190546	141.489
0.0191646	141.897
0.0192752	142.306
0.0193865	142.716
0.0194984	143.127
0.019611	143.54
0.0197242	143.953
0.0198381	144.368
0.0199526	144.784
0.0200678	145.202
0.0201837	145.62
0.0203002	146.04
0.0204174	146.461
0.0205353	146.883
0.0206538	147.307
0.020773	147.731
0.020893	148.157
0.0210136	148.584
0.0211349	149.012
0.0212569	149.442
0.0213796	149.873
0.021503	150.305
0.0216272	150.738
0.021752	151.172
0.0218776	151.608
0.0220039	152.045
0.0221309	152.483
0.0222587	152.923
0.0223872	153.363
0.0225165	153.806
0.0226464	154.249
0.0227772	154.693
0.0229087	155.139
0.0230409	155.587
0.0231739	156.035
0.0233077	156.485
0.0234423	156.936
0.0235776	157.388
0.0237137	157.842
0.0238506	158.297
0.0239883	158.753
0.0241268	159.211
0.0242661	159.67
0.0244062	160.13
0.0245471	160.591
0.0246888	161.054
0.0248313	161.518
0.0249747	161.984
0.0251189	162.451
0.0252639	162.919
0.0254097	163.389
0.0255564	163.86
0.025704	164.332
0.0258523	164.806
0.0260016	165.281
0.0261517	165.757
0.0263027	166.235
0.0264545	166.714
0.0266073	167.195
0.0267609	167.676
0.0269153	168.16
0.0270707	168.644
0.027227	169.131
0.0273842	169.618
0.0275423	170.107
0.0277013	170.597
0.0278612	171.089
0.0280221	171.582
0.0281838	172.077
0.0283465	172.573
0.0285102	173.07
0.0286748	173.569
0.0288403	174.069
0.0290068	174.571
0.0291743	175.074
0.0293427	175.579
0.0295121	176.085
0.0296825	176.592
0.0298538	177.101
0.0300262	177.612
0.0301995	178.124
0.0303739	178.637
0.0305492	179.152
0.0307256	179.669
0.030903	180.186
0.0310814	180.706
0.0312608	181.227
0.0314413	181.749
0.0316228	182.273
0.0318053	182.798
0.031989	183.325
0.0321736	183.854
0.0323594	184.383
0.0325462	184.915
0.0327341	185.448
0.032923	185.982
0.0331131	186.519
0.0333043	187.056
0.0334965	187.595
0.0336899	188.136
0.0338844	188.678
0.03408	189.222
0.0342768	189.768
0.0344747	190.315
0.0346737	190.863
0.0348739	191.413
0.0350752	191.965
0.0352777	192.518
0.0354813	193.073
0.0356862	193.63
0.0358922	194.188
0.0360994	194.748
0.0363078	195.309
0.0365174	195.872
0.0367282	196.436
0.0369403	197.003
0.0371535	197.57
0.037368	198.14
0.0375837	198.711
0.0378007	199.284
0.0380189	199.858
0.0382384	200.434
0.0384592	201.012
0.0386812	201.591
0.0389045	202.172
0.0391291	202.755
0.039355	203.34
0.0395822	203.926
0.0398107	204.514
0.0400405	205.103
0.0402717	205.694
0.0405042	206.287
0.040738	206.882
0.0409732	207.478
0.0412098	208.076
0.0414477	208.676
0.0416869	209.277
0.0419276	209.88
0.0421697	210.485
0.0424131	211.092
0.042658	211.701
0.0429042	212.311
0.0431519	212.923
0.043401	213.536
0.0436516	214.152
0.0439036	214.769
0.044157	215.388
0.044412	216.009
0.0446684	216.632
0.0449262	217.256
0.0451856	217.882
0.0454465	218.51
0.0457088	219.14
0.0459727	219.772
0.0462381	220.405
0.046505	221.041
0.0467735	221.678
0.0470435	222.317
0.0473151	222.957
0.0475883	223.6
0.047863	224.245
0.0481393	224.891
0.0484172	225.539
0.0486968	226.189
0.0489779	226.841
0.0492606	227.495
0.049545	228.151
0.049831	228.808
0.0501187	229.468
0.0504081	230.129
0.0506991	230.793
0.0509918	231.458
0.0512861	232.125
0.0515822	232.794
0.05188	233.465
0.0521795	234.138
0.0524807	234.813
0.0527837	235.49
0.0530884	236.169
0.0533949	236.849
0.0537032	237.532
0.0540132	238.217
0.054325	238.903
0.0546387	239.592
0.0549541	240.282
0.0552713	240.975
0.0555904	241.67
0.0559114	242.366
0.0562341	243.065
0.0565588	243.765
0.0568853	244.468
0.0572137	245.173
0.057544	245.879
0.0578762	246.588
0.0582103	247.299
0.0585464	248.012
0.0588844	248.726
0.0592243	249.443
0.0595662	250.162
0.0599101	250.883
0.060256	251.607
0.0606038	252.332
0.0609537	253.059
0.0613056	253.789
0.0616595	254.52
0.0620155	255.254
0.0623735	255.989
0.0627336	256.727
0.0630957	257.467
0.06346	258.209
0.0638263	258.954
0.0641948	259.7
0.0645654	260.449
0.0649382	261.199
0.0653131	261.952
0.0656901	262.707
0.0660693	263.464
0.0664508	264.224
0.0668344	264.985
0.0672202	265.749
0.0676083	266.515
0.0679986	267.283
0.0683912	268.054
0.068786	268.826
0.0691831	269.601
0.0695825	270.378
0.0699842	271.158
0.0703882	271.939
0.0707946	272.723
0.0712033	273.509
0.0716143	274.298
0.0720278	275.088
0.0724436	275.881
0.0728618	276.676
0.0732825	277.474
0.0737055	278.274
0.074131	279.076
0.074559	279.88
0.0749894	280.687
0.0754223	281.496
0.0758578	282.307
0.0762957	283.121
0.0767361	283.937
0.0771792	284.755
0.0776247	285.576
0.0780728	286.399
0.0785236	287.225
0.0789769	288.053
0.0794328	288.883
0.0798914	289.716
0.0803526	290.551
0.0808165	291.388
0.0812831	292.228
0.0817523	293.07
0.0822243	293.915
0.082699	294.762
0.0831764	295.612
0.0836566	296.464
0.0841395	297.319
0.0846253	298.176
0.0851138	299.035
0.0856052	299.897
0.0860994	300.761
0.0865964	301.628
0.0870964	302.498
0.0875992	303.37
0.0881049	304.244
0.0886135	305.121
0.0891251	306
0.0896396	306.882
0.0901571	307.767
0.0906776	308.654
0.0912011	309.544
0.0917276	310.436
0.0922571	311.331
0.0927897	312.228
0.0933254	313.128
0.0938642	314.031
0.0944061	314.936
0.0949511	315.844
0.0954993	316.754
0.0960506	317.667
0.0966051	318.583
0.0971628	319.501
0.0977237	320.422
0.0982879	321.345
0.0988553	322.272
0.099426	323.2
0.1	324.132
0.100577	325.066
0.101158	326.003
0.101742	326.943
0.102329	327.885
0.10292	328.83
0.103514	329.778
0.104112	330.729
0.104713	331.682
0.105317	332.638
0.105925	333.597
0.106537	334.558
0.107152	335.523
0.107771	336.49
0.108393	337.46
0.109018	338.432
0.109648	339.408
0.110281	340.386
0.110917	341.367
0.111558	342.351
0.112202	343.338
0.11285	344.328
0.113501	345.32
0.114156	346.316
0.114815	347.314
0.115478	348.315
0.116145	349.319
0.116815	350.326
0.11749	351.335
0.118168	352.348
0.11885	353.364
0.119536	354.382
0.120226	355.404
0.120921	356.428
0.121619	357.456
0.122321	358.486
0.123027	359.519
0.123737	360.555
0.124451	361.595
0.12517	362.637
0.125893	363.682
0.126619	364.73
0.12735	365.782
0.128086	366.836
0.128825	367.893
0.129569	368.954
0.130317	370.017
0.131069	371.084
0.131826	372.153
0.132587	373.226
0.133352	374.302
0.134122	375.381
0.134896	376.463
0.135675	377.548
0.136458	378.636
0.137246	379.727
0.138038	380.822
0.138835	381.92
0.139637	383.02
0.140443	384.124
0.141254	385.232
0.142069	386.342
0.142889	387.456
0.143714	388.572
0.144544	389.692
0.145378	390.816
0.146218	391.942
0.147062	393.072
0.147911	394.205
0.148765	395.341
0.149624	396.481
0.150487	397.623
0.151356	398.77
0.15223	399.919
0.153109	401.072
0.153993	402.228
0.154882	403.387
0.155776	404.55
0.156675	405.716
0.15758	406.885
0.158489	408.058
0.159404	409.234
0.160325	410.414
0.16125	411.597
0.162181	412.783
0.163117	413.973
0.164059	415.166
0.165006	416.363
0.165959	417.563
0.166917	418.767
0.16788	419.974
0.16885	421.184
0.169824	422.398
0.170805	423.616
0.171791	424.837
0.172783	426.061
0.17378	427.289
0.174783	428.521
0.175792	429.756
0.176807	430.995
0.177828	432.237
0.178855	433.483
0.179887	434.732
0.180926	435.985
0.18197	437.242
0.183021	438.502
0.184077	439.766
0.18514	441.034
0.186209	442.305
0.187284	443.58
0.188365	444.859
0.189452	446.141
0.190546	447.427
0.191646	448.716
0.192752	450.01
0.193865	451.307
0.194984	452.608
0.19611	453.912
0.197242	455.221
0.198381	456.533
0.199526	457.849
0.200678	459.168
0.201837	460.492
0.203002	461.819
0.204174	463.15
0.205353	464.485
0.206538	465.824
0.20773	467.167
0.20893	468.513
0.210136	469.864
0.211349	471.218
0.212569	472.576
0.213796	473.939
0.21503	475.305
0.216272	476.675
0.21752	478.049
0.218776	479.426
0.220039	480.808
0.221309	482.194
0.222587	483.584
0.223872	484.978
0.225165	486.376
0.226464	487.778
0.227772	489.184
0.229087	490.594
0.230409	492.008
0.231739	493.426
0.233077	494.848
0.234423	496.275
0.235776	497.705
0.237137	499.14
0.238506	500.578
0.239883	502.021
0.241268	503.468
0.242661	504.919
0.244062	506.375
0.245471	507.834
0.246888	509.298
0.248313	510.766
0.249747	512.238
0.251189	513.715
0.252639	515.195
0.254097	516.68
0.255564	518.17
0.25704	519.663
0.258523	521.161
0.260016	522.663
0.261517	524.17
0.263027	525.681
0.264545	527.196
0.266073	528.715
0.267609	530.239
0.269153	531.768
0.270707	533.301
0.27227	534.838
0.273842	536.379
0.275423	537.925
0.277013	539.476
0.278612	541.031
0.280221	542.59
0.281838	544.154
0.283465	545.723
0.285102	547.296
0.286748	548.873
0.288403	550.455
0.290068	552.042
0.291743	553.633
0.293427	555.229
0.295121	556.829
0.296825	558.434
0.298538	560.044
0.300262	561.658
0.301995	563.277
0.303739	564.901
0.305492	566.529
0.307256	568.162
0.30903	569.799
0.310814	571.442
0.312608	573.089
0.314413	574.741
0.316228	576.397
0.318053	578.059
0.31989	579.725
0.321736	581.396
0.323594	583.072
0.325462	584.752
0.327341	586.438
0.32923	588.128
0.331131	589.823
0.333043	591.524
0.334965	593.228
0.336899	594.938
0.338844	596.653
0.3408	598.373
0.342768	600.098
0.344747	601.827
0.346737	603.562
0.348739	605.302
0.350752	607.047
0.352777	608.796
0.354813	610.551
0.356862	612.311
0.358922	614.076
0.360994	615.846
0.363078	617.621
0.365174	619.401
0.367282	621.186
0.369403	622.977
0.371535	624.773
0.37368	626.573
0.375837	628.379
0.378007	630.191
0.380189	632.007
0.382384	633.829
0.384592	635.656
0.386812	637.488
0.389045	639.325
0.391291	641.168
0.39355	643.016
0.395822	644.87
0.398107	646.729
0.400405	648.593
0.402717	650.462
0.405042	652.337
0.40738	654.217
0.409732	656.103
0.412098	657.994
0.414477	659.891
0.416869	661.793
0.419276	663.7
0.421697	665.613
0.424131	667.532
0.42658	669.456
0.429042	671.386
0.431519	673.321
0.43401	675.262
0.436516	677.208
0.439036	679.16
0.44157	681.117
0.44412	683.081
0.446684	685.05
0.449262	687.024
0.451856	689.004
0.454465	690.99
0.457088	692.982
0.459727	694.98
0.462381	696.983
0.46505	698.992
0.467735	701.006
0.470435	703.027
0.473151	705.053
0.475883	707.086
0.47863	709.124
0.481393	711.168
0.484172	713.218
0.486968	715.273
0.489779	717.335
0.492606	719.403
0.49545	721.476
0.49831	723.556
0.501187	725.641
0.504081	727.733
0.506991	729.83
0.509918	731.934
0.512861	734.044
0.515822	736.16
0.5188	738.282
0.521795	740.41
0.524807	742.544
0.527837	744.684
0.530884	746.83
0.533949	748.983
0.537032	751.142
0.540132	753.307
0.54325	755.478
0.546387	757.656
0.549541	759.84
0.552713	762.03
0.555904	764.226
0.559114	766.429
0.562341	768.638
0.565588	770.854
0.568853	773.076
0.572137	775.304
0.57544	777.579
0.578762	780.124
0.582103	782.682
0.585464	785.253
0.588844	787.836
0.592243	790.433
0.595662	793.042
0.599101	795.665
0.60256	798.301
0.606038	800.949
0.609537	803.611
