Stopping power dEdx from Ionisation for Na23[0.0] Z = 11 in G4_TISSUE_SOFT_ICRP, process name: ionIoni
E [MeV]	dEdx [MeV/mm]
0.001	52.0541
0.00100577	52.2041
0.00101158	52.3546
0.00101742	52.5055
0.00102329	52.6568
0.0010292	52.8086
0.00103514	52.9608
0.00104112	53.1135
0.00104713	53.2666
0.00105317	53.4201
0.00105925	53.5741
0.00106537	53.7285
0.00107152	53.8834
0.00107771	54.0387
0.00108393	54.1945
0.00109018	54.3507
0.00109648	54.5073
0.00110281	54.6644
0.00110917	54.822
0.00111558	54.98
0.00112202	55.1385
0.0011285	55.2974
0.00113501	55.4568
0.00114156	55.6167
0.00114815	55.777
0.00115478	55.9377
0.00116145	56.099
0.00116815	56.2607
0.0011749	56.4228
0.00118168	56.5855
0.0011885	56.7486
0.00119536	56.9121
0.00120226	57.0762
0.00120921	57.2407
0.00121619	57.4057
0.00122321	57.5711
0.00123027	57.7371
0.00123737	57.9035
0.00124451	58.0704
0.0012517	58.2378
0.00125893	58.4057
0.00126619	58.574
0.0012735	58.7428
0.00128086	58.9122
0.00128825	59.082
0.00129569	59.2523
0.00130317	59.423
0.00131069	59.5943
0.00131826	59.7661
0.00132587	59.9384
0.00133352	60.1111
0.00134122	60.2844
0.00134896	60.4582
0.00135675	60.6324
0.00136458	60.8072
0.00137246	60.9825
0.00138038	61.1582
0.00138835	61.3345
0.00139637	61.5113
0.00140443	61.6886
0.00141254	61.8664
0.00142069	62.0447
0.00142889	62.2236
0.00143714	62.4029
0.00144544	62.5828
0.00145378	62.7632
0.00146218	62.9441
0.00147062	63.1255
0.00147911	63.3075
0.00148765	63.4899
0.00149624	63.6729
0.00150487	63.8565
0.00151356	64.0405
0.0015223	64.2251
0.00153109	64.4102
0.00153993	64.5959
0.00154882	64.7821
0.00155776	64.9688
0.00156675	65.1561
0.0015758	65.3439
0.00158489	65.5322
0.00159404	65.7211
0.00160325	65.9105
0.0016125	66.1005
0.00162181	66.291
0.00163117	66.4821
0.00164059	66.6737
0.00165006	66.8659
0.00165959	67.0587
0.00166917	67.2519
0.0016788	67.4458
0.0016885	67.6402
0.00169824	67.8352
0.00170805	68.0307
0.00171791	68.2268
0.00172783	68.4234
0.0017378	68.6207
0.00174783	68.8184
0.00175792	69.0168
0.00176807	69.2157
0.00177828	69.4152
0.00178855	69.6153
0.00179887	69.816
0.00180926	70.0172
0.0018197	70.219
0.00183021	70.4214
0.00184077	70.6244
0.0018514	70.828
0.00186209	71.0321
0.00187284	71.2369
0.00188365	71.4422
0.00189452	71.6481
0.00190546	71.8546
0.00191646	72.0618
0.00192752	72.2695
0.00193865	72.4778
0.00194984	72.6867
0.0019611	72.8962
0.00197242	73.1063
0.00198381	73.317
0.00199526	73.5284
0.00200678	73.7403
0.00201837	73.9528
0.00203002	74.166
0.00204174	74.3798
0.00205353	74.5942
0.00206538	74.8092
0.0020773	75.0248
0.0020893	75.2411
0.00210136	75.4579
0.00211349	75.6754
0.00212569	75.8936
0.00213796	76.1123
0.0021503	76.3317
0.00216272	76.5517
0.0021752	76.7724
0.00218776	76.9936
0.00220039	77.2156
0.00221309	77.4381
0.00222587	77.6613
0.00223872	77.8852
0.00225165	78.1097
0.00226464	78.3348
0.00227772	78.5606
0.00229087	78.7871
0.00230409	79.0142
0.00231739	79.2419
0.00233077	79.4703
0.00234423	79.6994
0.00235776	79.9291
0.00237137	80.1595
0.00238506	80.3905
0.00239883	80.6222
0.00241268	80.8546
0.00242661	81.0877
0.00244062	81.3214
0.00245471	81.5558
0.00246888	81.7909
0.00248313	82.0266
0.00249747	82.2631
0.00251189	82.5002
0.00252639	82.738
0.00254097	82.9765
0.00255564	83.2156
0.0025704	83.4555
0.00258523	83.696
0.00260016	83.9373
0.00261517	84.1792
0.00263027	84.4219
0.00264545	84.6652
0.00266073	84.9092
0.00267609	85.154
0.00269153	85.3994
0.00270707	85.6456
0.0027227	85.8924
0.00273842	86.14
0.00275423	86.3883
0.00277013	86.6373
0.00278612	86.887
0.00280221	87.1375
0.00281838	87.3886
0.00283465	87.6405
0.00285102	87.8931
0.00286748	88.1465
0.00288403	88.4005
0.00290068	88.6553
0.00291743	88.9109
0.00293427	89.1671
0.00295121	89.4242
0.00296825	89.6819
0.00298538	89.9404
0.00300262	90.1997
0.00301995	90.4596
0.00303739	90.7204
0.00305492	90.9819
0.00307256	91.2441
0.0030903	91.5071
0.00310814	91.7709
0.00312608	92.0354
0.00314413	92.3007
0.00316228	92.5667
0.00318053	92.8335
0.0031989	93.1011
0.00321736	93.3695
0.00323594	93.6386
0.00325462	93.9085
0.00327341	94.1792
0.0032923	94.4506
0.00331131	94.7229
0.00333043	94.9959
0.00334965	95.2697
0.00336899	95.5443
0.00338844	95.8197
0.003408	96.0959
0.00342768	96.3729
0.00344747	96.6507
0.00346737	96.9293
0.00348739	97.2086
0.00350752	97.4888
0.00352777	97.7698
0.00354813	98.0516
0.00356862	98.3343
0.00358922	98.6177
0.00360994	98.902
0.00363078	99.187
0.00365174	99.4729
0.00367282	99.7596
0.00369403	100.047
0.00371535	100.336
0.0037368	100.625
0.00375837	100.915
0.00378007	101.206
0.00380189	101.497
0.00382384	101.79
0.00384592	102.083
0.00386812	102.378
0.00389045	102.673
0.00391291	102.969
0.0039355	103.265
0.00395822	103.563
0.00398107	103.862
0.00400405	104.161
0.00402717	104.461
0.00405042	104.762
0.0040738	105.064
0.00409732	105.367
0.00412098	105.671
0.00414477	105.975
0.00416869	106.281
0.00419276	106.587
0.00421697	106.894
0.00424131	107.202
0.0042658	107.511
0.00429042	107.821
0.00431519	108.132
0.0043401	108.444
0.00436516	108.756
0.00439036	109.07
0.0044157	109.384
0.0044412	109.7
0.00446684	110.016
0.00449262	110.333
0.00451856	110.651
0.00454465	110.97
0.00457088	111.29
0.00459727	111.61
0.00462381	111.932
0.0046505	112.255
0.00467735	112.578
0.00470435	112.903
0.00473151	113.228
0.00475883	113.555
0.0047863	113.882
0.00481393	114.21
0.00484172	114.539
0.00486968	114.87
0.00489779	115.201
0.00492606	115.533
0.0049545	115.866
0.0049831	116.2
0.00501187	116.535
0.00504081	116.87
0.00506991	117.207
0.00509918	117.545
0.00512861	117.884
0.00515822	118.224
0.005188	118.565
0.00521795	118.906
0.00524807	119.249
0.00527837	119.593
0.00530884	119.937
0.00533949	120.283
0.00537032	120.63
0.00540132	120.978
0.0054325	121.326
0.00546387	121.676
0.00549541	122.027
0.00552713	122.378
0.00555904	122.731
0.00559114	123.085
0.00562341	123.44
0.00565588	123.796
0.00568853	124.152
0.00572137	124.51
0.0057544	124.866
0.00578762	125.217
0.00582103	125.57
0.00585464	125.923
0.00588844	126.277
0.00592243	126.632
0.00595662	126.989
0.00599101	127.346
0.0060256	127.704
0.00606038	128.064
0.00609537	128.424
0.00613056	128.786
0.00616595	129.148
0.00620155	129.512
0.00623735	129.876
0.00627336	130.242
0.00630957	130.609
0.006346	130.976
0.00638263	131.345
0.00641948	131.715
0.00645654	132.086
0.00649382	132.458
0.00653131	132.831
0.00656901	133.205
0.00660693	133.58
0.00664508	133.957
0.00668344	134.334
0.00672202	134.712
0.00676083	135.092
0.00679986	135.473
0.00683912	135.854
0.0068786	136.237
0.00691831	136.621
0.00695825	137.006
0.00699842	137.393
0.00703882	137.78
0.00707946	138.168
0.00712033	138.558
0.00716143	138.948
0.00720278	139.34
0.00724436	139.733
0.00728618	140.127
0.00732825	140.522
0.00737055	140.919
0.0074131	141.316
0.0074559	141.715
0.00749894	142.115
0.00754223	142.515
0.00758578	142.918
0.00762957	143.321
0.00767361	143.725
0.00771792	144.131
0.00776247	144.537
0.00780728	144.945
0.00785236	145.355
0.00789769	145.765
0.00794328	146.176
0.00798914	146.589
0.00803526	147.003
0.00808165	147.418
0.00812831	147.834
0.00817523	148.251
0.00822243	148.67
0.0082699	149.09
0.00831764	149.511
0.00836566	149.933
0.00841395	150.357
0.00846253	150.782
0.00851138	151.208
0.00856052	151.635
0.00860994	152.063
0.00865964	152.493
0.00870964	152.924
0.00875992	153.356
0.00881049	153.789
0.00886135	154.224
0.00891251	154.66
0.00896396	155.097
0.00901571	155.536
0.00906776	155.975
0.00912011	156.416
0.00917276	156.858
0.00922571	157.302
0.00927897	157.747
0.00933254	158.193
0.00938642	158.64
0.00944061	159.089
0.00949511	159.539
0.00954993	159.99
0.00960506	160.443
0.00966051	160.897
0.00971628	161.352
0.00977237	161.809
0.00982879	162.267
0.00988553	162.726
0.0099426	163.186
0.01	163.648
0.0100577	164.111
0.0101158	164.576
0.0101742	165.042
0.0102329	165.509
0.010292	165.978
0.0103514	166.448
0.0104112	166.919
0.0104713	167.392
0.0105317	167.866
0.0105925	168.341
0.0106537	168.818
0.0107152	169.296
0.0107771	169.776
0.0108393	170.257
0.0109018	170.739
0.0109648	171.223
0.0110281	171.708
0.0110917	172.195
0.0111558	172.683
0.0112202	173.172
0.011285	173.663
0.0113501	174.155
0.0114156	174.649
0.0114815	175.144
0.0115478	175.64
0.0116145	176.138
0.0116815	176.638
0.011749	177.139
0.0118168	177.641
0.011885	178.145
0.0119536	178.65
0.0120226	179.157
0.0120921	179.665
0.0121619	180.175
0.0122321	180.686
0.0123027	181.199
0.0123737	181.713
0.0124451	182.228
0.012517	182.745
0.0125893	183.264
0.0126619	183.784
0.012735	184.306
0.0128086	184.829
0.0128825	185.354
0.0129569	185.88
0.0130317	186.408
0.0131069	186.937
0.0131826	187.468
0.0132587	188
0.0133352	188.534
0.0134122	189.069
0.0134896	189.606
0.0135675	190.145
0.0136458	190.685
0.0137246	191.227
0.0138038	191.77
0.0138835	192.315
0.0139637	192.862
0.0140443	193.41
0.0141254	193.959
0.0142069	194.51
0.0142889	195.063
0.0143714	195.618
0.0144544	196.174
0.0145378	196.732
0.0146218	197.291
0.0147062	197.852
0.0147911	198.414
0.0148765	198.979
0.0149624	199.544
0.0150487	200.112
0.0151356	200.681
0.015223	201.252
0.0153109	201.824
0.0153993	202.399
0.0154882	202.974
0.0155776	203.552
0.0156675	204.131
0.015758	204.712
0.0158489	205.294
0.0159404	205.879
0.0160325	206.465
0.016125	207.052
0.0162181	207.642
0.0163117	208.233
0.0164059	208.826
0.0165006	209.42
0.0165959	210.017
0.0166917	210.615
0.016788	211.214
0.016885	211.816
0.0169824	212.419
0.0170805	213.024
0.0171791	213.631
0.0172783	214.24
0.017378	214.85
0.0174783	215.462
0.0175792	216.076
0.0176807	216.692
0.0177828	217.309
0.0178855	217.929
0.0179887	218.55
0.0180926	219.173
0.018197	219.797
0.0183021	220.424
0.0184077	221.052
0.018514	221.683
0.0186209	222.315
0.0187284	222.949
0.0188365	223.584
0.0189452	224.222
0.0190546	224.862
0.0191646	225.503
0.0192752	226.146
0.0193865	226.791
0.0194984	227.438
0.019611	228.087
0.0197242	228.738
0.0198381	229.391
0.0199526	230.045
0.0200678	230.702
0.0201837	231.36
0.0203002	232.021
0.0204174	232.683
0.0205353	233.347
0.0206538	234.013
0.020773	234.681
0.020893	235.352
0.0210136	236.024
0.0211349	236.698
0.0212569	237.374
0.0213796	238.052
0.021503	238.731
0.0216272	239.413
0.021752	240.097
0.0218776	240.783
0.0220039	241.471
0.0221309	242.161
0.0222587	242.853
0.0223872	243.547
0.0225165	244.243
0.0226464	244.941
0.0227772	245.641
0.0229087	246.343
0.0230409	246.814
0.0231739	246.978
0.0233077	247.143
0.0234423	247.311
0.0235776	247.48
0.0237137	247.651
0.0238506	247.824
0.0239883	247.998
0.0241268	248.174
0.0242661	248.352
0.0244062	248.531
0.0245471	248.711
0.0246888	248.894
0.0248313	249.078
0.0249747	249.263
0.0251189	249.45
0.0252639	249.638
0.0254097	249.828
0.0255564	250.019
0.025704	250.211
0.0258523	250.405
0.0260016	250.6
0.0261517	250.797
0.0263027	250.995
0.0264545	251.195
0.0266073	251.395
0.0267609	251.597
0.0269153	251.8
0.0270707	252.005
0.027227	252.211
0.0273842	252.418
0.0275423	252.626
0.0277013	252.835
0.0278612	253.046
0.0280221	253.258
0.0281838	253.471
0.0283465	253.685
0.0285102	253.9
0.0286748	254.117
0.0288403	254.334
0.0290068	254.553
0.0291743	254.773
0.0293427	254.994
0.0295121	255.215
0.0296825	255.439
0.0298538	255.663
0.0300262	255.888
0.0301995	256.114
0.0303739	256.341
0.0305492	256.569
0.0307256	256.799
0.030903	257.029
0.0310814	257.26
0.0312608	257.492
0.0314413	257.725
0.0316228	257.96
0.0318053	258.195
0.031989	258.431
0.0321736	258.668
0.0323594	258.906
0.0325462	259.145
0.0327341	259.385
0.032923	259.626
0.0331131	259.867
0.0333043	260.11
0.0334965	260.354
0.0336899	260.598
0.0338844	260.843
0.03408	261.09
0.0342768	261.337
0.0344747	261.585
0.0346737	261.834
0.0348739	262.084
0.0350752	262.334
0.0352777	262.586
0.0354813	262.838
0.0356862	263.092
0.0358922	263.346
0.0360994	263.601
0.0363078	263.857
0.0365174	264.113
0.0367282	264.371
0.0369403	264.629
0.0371535	264.889
0.037368	265.149
0.0375837	265.41
0.0378007	265.672
0.0380189	265.934
0.0382384	266.198
0.0384592	266.462
0.0386812	266.727
0.0389045	266.993
0.0391291	267.26
0.039355	267.528
0.0395822	267.797
0.0398107	268.066
0.0400405	268.336
0.0402717	268.607
0.0405042	268.879
0.040738	269.152
0.0409732	269.425
0.0412098	269.7
0.0414477	269.975
0.0416869	270.251
0.0419276	270.528
0.0421697	270.806
0.0424131	271.084
0.042658	271.364
0.0429042	271.644
0.0431519	271.925
0.043401	272.207
0.0436516	272.49
0.0439036	272.774
0.044157	273.058
0.044412	273.344
0.0446684	273.63
0.0449262	273.917
0.0451856	274.205
0.0454465	274.494
0.0457088	274.784
0.0459727	275.074
0.0462381	275.366
0.046505	275.658
0.0467735	275.951
0.0470435	276.245
0.0473151	276.54
0.0475883	276.836
0.047863	277.133
0.0481393	277.431
0.0484172	277.729
0.0486968	278.029
0.0489779	278.329
0.0492606	278.631
0.049545	278.933
0.049831	279.236
0.0501187	279.54
0.0504081	279.845
0.0506991	280.151
0.0509918	280.458
0.0512861	280.766
0.0515822	281.074
0.05188	281.384
0.0521795	281.695
0.0524807	282.006
0.0527837	282.319
0.0530884	282.632
0.0533949	282.947
0.0537032	283.262
0.0540132	283.579
0.054325	283.896
0.0546387	284.215
0.0549541	284.534
0.0552713	284.855
0.0555904	285.176
0.0559114	285.499
0.0562341	285.822
0.0565588	286.147
0.0568853	286.472
0.0572137	286.799
0.057544	287.127
0.0578762	287.455
0.0582103	287.785
0.0585464	288.116
0.0588844	288.448
0.0592243	288.781
0.0595662	289.115
0.0599101	289.45
0.060256	289.786
0.0606038	290.124
0.0609537	290.462
0.0613056	290.802
0.0616595	291.142
0.0620155	291.484
0.0623735	291.827
0.0627336	292.171
0.0630957	292.516
0.06346	292.863
0.0638263	293.21
0.0641948	293.559
0.0645654	293.909
0.0649382	294.259
0.0653131	294.612
0.0656901	294.965
0.0660693	295.32
0.0664508	295.675
0.0668344	296.032
0.0672202	296.39
0.0676083	296.75
0.0679986	297.11
0.0683912	297.472
0.068786	297.835
0.0691831	298.2
0.0695825	298.565
0.0699842	298.932
0.0703882	299.3
0.0707946	299.67
0.0712033	300.041
0.0716143	300.413
0.0720278	300.786
0.0724436	301.16
0.0728618	301.536
0.0732825	301.914
0.0737055	302.292
0.074131	302.672
0.074559	303.053
0.0749894	303.436
0.0754223	303.82
0.0758578	304.205
0.0762957	304.592
0.0767361	304.98
0.0771792	305.369
0.0776247	305.76
0.0780728	306.153
0.0785236	306.546
0.0789769	306.941
0.0794328	307.338
0.0798914	307.736
0.0803526	308.135
0.0808165	308.536
0.0812831	308.938
0.0817523	309.342
0.0822243	309.747
0.082699	310.154
0.0831764	310.562
0.0836566	310.972
0.0841395	311.383
0.0846253	311.796
0.0851138	312.21
0.0856052	312.625
0.0860994	313.043
0.0865964	313.462
0.0870964	313.882
0.0875992	314.304
0.0881049	314.727
0.0886135	315.152
0.0891251	315.579
0.0896396	316.007
0.0901571	316.437
0.0906776	316.868
0.0912011	317.301
0.0917276	317.736
0.0922571	318.172
0.0927897	318.61
0.0933254	319.049
0.0938642	319.491
0.0944061	319.933
0.0949511	320.378
0.0954993	320.824
0.0960506	321.272
0.0966051	321.721
0.0971628	322.172
0.0977237	322.625
0.0982879	323.08
0.0988553	323.536
0.099426	323.994
0.1	324.454
0.100577	324.916
0.101158	325.379
0.101742	325.844
0.102329	326.311
0.10292	326.779
0.103514	327.25
0.104112	327.722
0.104713	328.196
0.105317	328.672
0.105925	329.149
0.106537	329.629
0.107152	330.11
0.107771	330.593
0.108393	331.078
0.109018	331.565
0.109648	332.053
0.110281	332.544
0.110917	333.036
0.111558	333.53
0.112202	334.026
0.11285	334.524
0.113501	335.024
0.114156	335.526
0.114815	336.03
0.115478	336.536
0.116145	337.043
0.116815	337.553
0.11749	338.064
0.118168	338.578
0.11885	339.093
0.119536	339.611
0.120226	340.13
0.120921	340.652
0.121619	341.175
0.122321	341.701
0.123027	342.228
0.123737	342.757
0.124451	343.289
0.12517	343.822
0.125893	344.358
0.126619	344.896
0.12735	345.435
0.128086	345.977
0.128825	346.521
0.129569	347.067
0.130317	347.615
0.131069	348.165
0.131826	348.717
0.132587	349.272
0.133352	349.828
0.134122	350.387
0.134896	350.947
0.135675	351.51
0.136458	352.075
0.137246	352.643
0.138038	353.212
0.138835	353.783
0.139637	354.357
0.140443	354.933
0.141254	355.511
0.142069	356.091
0.142889	356.674
0.143714	357.259
0.144544	357.846
0.145378	358.435
0.146218	359.026
0.147062	359.62
0.147911	360.216
0.148765	360.814
0.149624	361.415
0.150487	362.018
0.151356	362.623
0.15223	363.23
0.153109	363.84
0.153993	364.452
0.154882	365.066
0.155776	365.682
0.156675	366.301
0.15758	366.923
0.158489	367.546
0.159404	368.172
0.160325	368.801
0.16125	369.431
0.162181	370.064
0.163117	370.7
0.164059	371.337
0.165006	371.978
0.165959	372.62
0.166917	373.265
0.16788	373.913
0.16885	374.563
0.169824	375.215
0.170805	375.87
0.171791	376.527
0.172783	377.186
0.17378	377.848
0.174783	378.513
0.175792	379.18
0.176807	379.849
0.177828	380.521
0.178855	381.196
0.179887	381.873
0.180926	382.552
0.18197	383.234
0.183021	383.919
0.184077	384.605
0.18514	385.295
0.186209	385.987
0.187284	386.682
0.188365	387.379
0.189452	388.078
0.190546	388.781
0.191646	389.485
0.192752	390.193
0.193865	390.903
0.194984	391.615
0.19611	392.33
0.197242	393.048
0.198381	393.768
0.199526	394.491
0.200678	395.217
0.201837	395.945
0.203002	396.676
0.204174	397.409
0.205353	398.145
0.206538	398.884
0.20773	399.625
0.20893	400.369
0.210136	401.116
0.211349	401.865
0.212569	402.617
0.213796	403.372
0.21503	404.129
0.216272	404.889
0.21752	405.652
0.218776	406.417
0.220039	407.185
0.221309	407.956
0.222587	408.729
0.223872	409.506
0.225165	410.285
0.226464	411.066
0.227772	411.851
0.229087	412.638
0.230409	413.428
0.231739	414.22
0.233077	415.016
0.234423	415.814
0.235776	416.615
0.237137	417.418
0.238506	418.225
0.239883	419.034
0.241268	419.846
0.242661	420.661
0.244062	421.478
0.245471	422.299
0.246888	423.122
0.248313	423.948
0.249747	424.776
0.251189	425.608
0.252639	426.442
0.254097	427.279
0.255564	428.119
0.25704	428.962
0.258523	429.808
0.260016	430.656
0.261517	431.507
0.263027	432.361
0.264545	433.218
0.266073	434.078
0.267609	434.94
0.269153	435.806
0.270707	436.674
0.27227	437.545
0.273842	438.419
0.275423	439.296
0.277013	440.176
0.278612	441.058
0.280221	441.944
0.281838	442.832
0.283465	443.723
0.285102	444.617
0.286748	445.514
0.288403	446.413
0.290068	447.316
0.291743	448.221
0.293427	449.13
0.295121	450.041
0.296825	450.955
0.298538	451.872
0.300262	452.792
0.301995	453.714
0.303739	454.64
0.305492	455.568
0.307256	456.5
0.30903	457.434
0.310814	458.371
0.312608	459.311
0.314413	460.254
0.316228	461.199
0.318053	462.148
0.31989	463.1
0.321736	464.054
0.323594	465.011
0.325462	465.971
0.327341	466.934
0.32923	467.9
0.331131	468.869
0.333043	469.84
0.334965	470.815
0.336899	471.792
0.338844	472.772
0.3408	473.755
0.342768	474.741
0.344747	475.73
0.346737	476.722
0.348739	477.716
0.350752	478.714
0.352777	479.714
0.354813	480.717
0.356862	481.723
0.358922	482.732
0.360994	483.743
0.363078	484.758
0.365174	485.775
0.367282	486.795
0.369403	487.818
0.371535	488.843
0.37368	489.872
0.375837	490.903
0.378007	491.937
0.380189	492.974
0.382384	494.014
0.384592	495.056
0.386812	496.102
0.389045	497.15
0.391291	498.2
0.39355	499.254
0.395822	500.31
0.398107	501.369
0.400405	502.431
0.402717	503.496
0.405042	504.647
0.40738	506.634
0.409732	508.634
0.412098	510.648
0.414477	512.675
0.416869	514.716
0.419276	516.77
0.421697	518.839
0.424131	520.921
0.42658	523.018
0.429042	525.129
0.431519	527.254
0.43401	529.393
0.436516	531.547
0.439036	533.716
0.44157	535.899
0.44412	538.097
0.446684	540.311
0.449262	542.539
0.451856	544.783
0.454465	547.042
0.457088	549.317
0.459727	551.607
0.462381	553.913
0.46505	556.235
0.467735	558.572
0.470435	560.926
0.473151	563.297
0.475883	565.683
0.47863	568.087
0.481393	570.506
0.484172	572.943
0.486968	575.397
0.489779	577.867
0.492606	580.355
0.49545	582.861
0.49831	585.383
0.501187	587.924
0.504081	590.482
0.506991	593.058
0.509918	595.653
0.512861	598.265
0.515822	600.896
0.5188	603.545
0.521795	606.213
0.524807	608.9
0.527837	611.606
0.530884	614.331
0.533949	617.076
0.537032	619.839
0.540132	622.623
0.54325	625.426
0.546387	628.249
0.549541	631.093
0.552713	633.956
0.555904	636.84
0.559114	639.745
0.562341	642.67
0.565588	645.617
0.568853	648.584
0.572137	651.573
0.57544	654.584
0.578762	657.436
0.582103	660.024
0.585464	662.624
0.588844	665.238
0.592243	667.865
0.595662	670.505
0.599101	673.159
0.60256	675.826
0.606038	678.506
0.609537	681.199
