Stopping power dEdx from Ionisation for Ne20[0.0] Z = 10 in Water, process name: ionIoni
E [MeV]	dEdx [MeV/mm]
0.001	23.5232
0.00100577	23.5914
0.00101158	23.6598
0.00101742	23.7284
0.00102329	23.7972
0.0010292	23.8662
0.00103514	23.9354
0.00104112	24.0048
0.00104713	24.0744
0.00105317	24.1442
0.00105925	24.2142
0.00106537	24.2844
0.00107152	24.3548
0.00107771	24.4254
0.00108393	24.4962
0.00109018	24.5672
0.00109648	24.6384
0.00110281	24.7099
0.00110917	24.7815
0.00111558	24.8533
0.00112202	24.9254
0.0011285	24.9976
0.00113501	25.0701
0.00114156	25.1427
0.00114815	25.2156
0.00115478	25.2887
0.00116145	25.362
0.00116815	25.4355
0.0011749	25.5092
0.00118168	25.5831
0.0011885	25.6573
0.00119536	25.7316
0.00120226	25.8062
0.00120921	25.881
0.00121619	25.956
0.00122321	26.0312
0.00123027	26.1066
0.00123737	26.1823
0.00124451	26.2582
0.0012517	26.3343
0.00125893	26.4106
0.00126619	26.4871
0.0012735	26.5638
0.00128086	26.6408
0.00128825	26.718
0.00129569	26.7954
0.00130317	26.8731
0.00131069	26.9509
0.00131826	27.029
0.00132587	27.1073
0.00133352	27.1859
0.00134122	27.2646
0.00134896	27.3436
0.00135675	27.4228
0.00136458	27.5023
0.00137246	27.582
0.00138038	27.6619
0.00138835	27.742
0.00139637	27.8224
0.00140443	27.903
0.00141254	27.9838
0.00142069	28.0649
0.00142889	28.1461
0.00143714	28.2277
0.00144544	28.3094
0.00145378	28.3914
0.00146218	28.4737
0.00147062	28.5562
0.00147911	28.6389
0.00148765	28.7218
0.00149624	28.805
0.00150487	28.8884
0.00151356	28.9721
0.0015223	29.056
0.00153109	29.1402
0.00153993	29.2246
0.00154882	29.3092
0.00155776	29.3941
0.00156675	29.4792
0.0015758	29.5646
0.00158489	29.6502
0.00159404	29.7361
0.00160325	29.8222
0.0016125	29.9086
0.00162181	29.9952
0.00163117	30.082
0.00164059	30.1692
0.00165006	30.2565
0.00165959	30.3441
0.00166917	30.432
0.0016788	30.5201
0.0016885	30.6085
0.00169824	30.6971
0.00170805	30.786
0.00171791	30.8751
0.00172783	30.9645
0.0017378	31.0542
0.00174783	31.1441
0.00175792	31.2343
0.00176807	31.3247
0.00177828	31.4154
0.00178855	31.5064
0.00179887	31.5976
0.00180926	31.6891
0.0018197	31.7808
0.00183021	31.8728
0.00184077	31.9651
0.0018514	32.0576
0.00186209	32.1504
0.00187284	32.2435
0.00188365	32.3368
0.00189452	32.4305
0.00190546	32.5243
0.00191646	32.6185
0.00192752	32.7129
0.00193865	32.8076
0.00194984	32.9026
0.0019611	32.9978
0.00197242	33.0933
0.00198381	33.1891
0.00199526	33.2852
0.00200678	33.3815
0.00201837	33.4781
0.00203002	33.575
0.00204174	33.6722
0.00205353	33.7697
0.00206538	33.8674
0.0020773	33.9655
0.0020893	34.0638
0.00210136	34.1623
0.00211349	34.2612
0.00212569	34.3604
0.00213796	34.4598
0.0021503	34.5595
0.00216272	34.6596
0.0021752	34.7599
0.00218776	34.8605
0.00220039	34.9613
0.00221309	35.0625
0.00222587	35.164
0.00223872	35.2657
0.00225165	35.3678
0.00226464	35.4701
0.00227772	35.5728
0.00229087	35.6757
0.00230409	35.779
0.00231739	35.8825
0.00233077	35.9863
0.00234423	36.0905
0.00235776	36.1949
0.00237137	36.2996
0.00238506	36.4046
0.00239883	36.51
0.00241268	36.6156
0.00242661	36.7216
0.00244062	36.8278
0.00245471	36.9344
0.00246888	37.0412
0.00248313	37.1484
0.00249747	37.2559
0.00251189	37.3637
0.00252639	37.4718
0.00254097	37.5802
0.00255564	37.6889
0.0025704	37.7979
0.00258523	37.9073
0.00260016	38.017
0.00261517	38.1269
0.00263027	38.2372
0.00264545	38.3479
0.00266073	38.4588
0.00267609	38.5701
0.00269153	38.6816
0.00270707	38.7935
0.0027227	38.9057
0.00273842	39.0183
0.00275423	39.1312
0.00277013	39.2444
0.00278612	39.3579
0.00280221	39.4717
0.00281838	39.5859
0.00283465	39.7004
0.00285102	39.8152
0.00286748	39.9304
0.00288403	40.0459
0.00290068	40.1617
0.00291743	40.2779
0.00293427	40.3944
0.00295121	40.5112
0.00296825	40.6284
0.00298538	40.7459
0.00300262	40.8638
0.00301995	40.982
0.00303739	41.1005
0.00305492	41.2194
0.00307256	41.3386
0.0030903	41.4581
0.00310814	41.578
0.00312608	41.6983
0.00314413	41.8189
0.00316228	41.9398
0.00318053	42.0611
0.0031989	42.1827
0.00321736	42.3047
0.00323594	42.4271
0.00325462	42.5498
0.00327341	42.6728
0.0032923	42.7962
0.00331131	42.92
0.00333043	43.0441
0.00334965	43.1686
0.00336899	43.2934
0.00338844	43.4186
0.003408	43.5441
0.00342768	43.67
0.00344747	43.7963
0.00346737	43.923
0.00348739	44.05
0.00350752	44.1773
0.00352777	44.3051
0.00354813	44.4332
0.00356862	44.5617
0.00358922	44.6905
0.00360994	44.8197
0.00363078	44.9493
0.00365174	45.0793
0.00367282	45.2096
0.00369403	45.3403
0.00371535	45.4714
0.0037368	45.6029
0.00375837	45.7348
0.00378007	45.867
0.00380189	45.9996
0.00382384	46.1326
0.00384592	46.266
0.00386812	46.3997
0.00389045	46.5339
0.00391291	46.6684
0.0039355	46.8033
0.00395822	46.9386
0.00398107	47.0743
0.00400405	47.2104
0.00402717	47.3469
0.00405042	47.4838
0.0040738	47.621
0.00409732	47.7587
0.00412098	47.8968
0.00414477	48.0352
0.00416869	48.1741
0.00419276	48.3133
0.00421697	48.453
0.00424131	48.5931
0.0042658	48.7335
0.00429042	48.8744
0.00431519	49.0157
0.0043401	49.1574
0.00436516	49.2995
0.00439036	49.442
0.0044157	49.5849
0.0044412	49.7282
0.00446684	49.8719
0.00449262	50.0161
0.00451856	50.1607
0.00454465	50.3057
0.00457088	50.4511
0.00459727	50.5969
0.00462381	50.7431
0.0046505	50.8898
0.00467735	51.0369
0.00470435	51.1844
0.00473151	51.3323
0.00475883	51.4807
0.0047863	51.6295
0.00481393	51.7787
0.00484172	51.9283
0.00486968	52.0784
0.00489779	52.2289
0.00492606	52.3799
0.0049545	52.5313
0.0049831	52.6831
0.00501187	52.8353
0.00504081	52.988
0.00506991	53.1412
0.00509918	53.2947
0.00512861	53.4488
0.00515822	53.6032
0.005188	53.7581
0.00521795	53.9135
0.00524807	54.0693
0.00527837	54.2255
0.00530884	54.3822
0.00533949	54.5394
0.00537032	54.697
0.00540132	54.8551
0.0054325	55.0136
0.00546387	55.1726
0.00549541	55.332
0.00552713	55.4919
0.00555904	55.6522
0.00559114	55.813
0.00562341	56.1143
0.00565588	56.2761
0.00568853	56.4383
0.00572137	56.6009
0.0057544	56.7641
0.00578762	56.9277
0.00582103	57.0918
0.00585464	57.2563
0.00588844	57.4214
0.00592243	57.5869
0.00595662	57.7529
0.00599101	57.9193
0.0060256	58.0863
0.00606038	58.2537
0.00609537	58.4216
0.00613056	58.59
0.00616595	58.7589
0.00620155	58.9283
0.00623735	59.0981
0.00627336	59.2685
0.00630957	59.4393
0.006346	59.6106
0.00638263	59.7824
0.00641948	59.9548
0.00645654	60.1276
0.00649382	60.3009
0.00653131	60.4747
0.00656901	60.649
0.00660693	60.8238
0.00664508	60.9991
0.00668344	61.1749
0.00672202	61.3513
0.00676083	61.5281
0.00679986	61.7055
0.00683912	61.8833
0.0068786	62.0617
0.00691831	62.2406
0.00695825	62.42
0.00699842	62.5999
0.00703882	62.7803
0.00707946	62.9613
0.00712033	63.1428
0.00716143	63.3248
0.00720278	63.5073
0.00724436	63.6903
0.00728618	63.8739
0.00732825	64.058
0.00737055	64.2427
0.0074131	64.4278
0.0074559	64.6136
0.00749894	64.7998
0.00754223	64.9866
0.00758578	65.1739
0.00762957	65.3617
0.00767361	65.5501
0.00771792	65.7391
0.00776247	65.9286
0.00780728	66.1186
0.00785236	66.3092
0.00789769	66.5003
0.00794328	66.692
0.00798914	66.8842
0.00803526	67.077
0.00808165	67.2703
0.00812831	67.4642
0.00817523	67.6587
0.00822243	67.8537
0.0082699	68.0493
0.00831764	68.2454
0.00836566	68.4421
0.00841395	68.6394
0.00846253	68.8373
0.00851138	69.0357
0.00856052	69.2347
0.00860994	69.4342
0.00865964	69.6344
0.00870964	69.8351
0.00875992	70.0364
0.00881049	70.2382
0.00886135	70.4407
0.00891251	70.6437
0.00896396	70.8474
0.00901571	71.0516
0.00906776	71.2564
0.00912011	71.4617
0.00917276	71.6677
0.00922571	71.8743
0.00927897	72.0815
0.00933254	72.2892
0.00938642	72.4976
0.00944061	72.7066
0.00949511	72.9161
0.00954993	73.1263
0.00960506	73.3371
0.00966051	73.5485
0.00971628	73.7605
0.00977237	73.9731
0.00982879	74.1863
0.00988553	74.4001
0.0099426	74.6146
0.01	74.8296
0.0100577	75.0453
0.0101158	75.2616
0.0101742	75.4786
0.0102329	75.6961
0.010292	75.9143
0.0103514	76.1331
0.0104112	76.3526
0.0104713	76.5726
0.0105317	76.7934
0.0105925	77.0147
0.0106537	77.2367
0.0107152	77.4593
0.0107771	77.6826
0.0108393	77.9065
0.0109018	78.131
0.0109648	78.3562
0.0110281	78.5821
0.0110917	78.8086
0.0111558	79.0358
0.0112202	79.2636
0.011285	79.492
0.0113501	79.7212
0.0114156	79.9509
0.0114815	80.1814
0.0115478	80.4125
0.0116145	80.6443
0.0116815	80.8767
0.011749	81.1099
0.0118168	81.3436
0.011885	81.5781
0.0119536	81.8132
0.0120226	82.0491
0.0120921	82.2856
0.0121619	82.5227
0.0122321	82.7606
0.0123027	82.9991
0.0123737	83.2384
0.0124451	83.4783
0.012517	83.7189
0.0125893	83.9602
0.0126619	84.2022
0.012735	84.4449
0.0128086	84.6883
0.0128825	84.9324
0.0129569	85.1773
0.0130317	85.4228
0.0131069	85.669
0.0131826	85.9159
0.0132587	86.1636
0.0133352	86.4119
0.0134122	86.661
0.0134896	86.9108
0.0135675	87.1613
0.0136458	87.4125
0.0137246	87.6645
0.0138038	87.9172
0.0138835	88.1706
0.0139637	88.4247
0.0140443	88.6796
0.0141254	88.9352
0.0142069	89.1915
0.0142889	89.4486
0.0143714	89.7064
0.0144544	89.965
0.0145378	90.2243
0.0146218	90.4844
0.0147062	90.7452
0.0147911	91.0068
0.0148765	91.2691
0.0149624	91.5321
0.0150487	91.796
0.0151356	92.0606
0.015223	92.3259
0.0153109	92.592
0.0153993	92.8589
0.0154882	93.1266
0.0155776	93.395
0.0156675	93.6642
0.015758	93.9342
0.0158489	94.2049
0.0159404	94.4765
0.0160325	94.7488
0.016125	95.0219
0.0162181	95.2958
0.0163117	95.5704
0.0164059	95.8459
0.0165006	96.1222
0.0165959	96.3992
0.0166917	96.6771
0.016788	96.9558
0.016885	97.2352
0.0169824	97.5155
0.0170805	97.7966
0.0171791	98.0785
0.0172783	98.3612
0.017378	98.6447
0.0174783	98.929
0.0175792	99.2142
0.0176807	99.5001
0.0177828	99.7869
0.0178855	100.075
0.0179887	100.363
0.0180926	100.652
0.018197	100.942
0.0183021	101.233
0.0184077	101.525
0.018514	101.818
0.0186209	102.111
0.0187284	102.406
0.0188365	102.701
0.0189452	102.997
0.0190546	103.294
0.0191646	103.591
0.0192752	103.89
0.0193865	104.189
0.0194984	104.49
0.019611	104.791
0.0197242	105.093
0.0198381	105.396
0.0199526	105.7
0.0200678	106.004
0.0201837	106.31
0.0203002	106.616
0.0204174	106.924
0.0205353	107.232
0.0206538	107.541
0.020773	107.851
0.020893	108.162
0.0210136	108.473
0.0211349	108.786
0.0212569	109.1
0.0213796	109.414
0.021503	109.73
0.0216272	110.046
0.021752	110.363
0.0218776	110.681
0.0220039	111
0.0221309	111.32
0.0222587	111.641
0.0223872	111.963
0.0225165	112.285
0.0226464	112.609
0.0227772	112.934
0.0229087	113.259
0.0230409	113.586
0.0231739	113.913
0.0233077	114.241
0.0234423	114.571
0.0235776	114.901
0.0237137	115.232
0.0238506	115.564
0.0239883	115.897
0.0241268	116.231
0.0242661	116.566
0.0244062	116.902
0.0245471	117.239
0.0246888	117.577
0.0248313	117.916
0.0249747	118.256
0.0251189	118.597
0.0252639	118.939
0.0254097	119.282
0.0255564	119.625
0.025704	119.97
0.0258523	120.316
0.0260016	120.663
0.0261517	121.011
0.0263027	121.359
0.0264545	121.709
0.0266073	122.06
0.0267609	122.412
0.0269153	122.765
0.0270707	123.119
0.027227	123.473
0.0273842	123.829
0.0275423	124.186
0.0277013	124.544
0.0278612	124.903
0.0280221	125.263
0.0281838	125.624
0.0283465	125.986
0.0285102	126.35
0.0286748	126.714
0.0288403	127.079
0.0290068	127.445
0.0291743	127.813
0.0293427	128.181
0.0295121	128.55
0.0296825	128.921
0.0298538	129.293
0.0300262	129.665
0.0301995	130.039
0.0303739	130.414
0.0305492	130.79
0.0307256	131.167
0.030903	131.545
0.0310814	131.924
0.0312608	132.304
0.0314413	132.686
0.0316228	133.068
0.0318053	133.452
0.031989	133.836
0.0321736	134.222
0.0323594	134.609
0.0325462	134.997
0.0327341	135.386
0.032923	135.776
0.0331131	136.168
0.0333043	136.56
0.0334965	136.954
0.0336899	137.348
0.0338844	137.744
0.03408	138.141
0.0342768	138.54
0.0344747	138.939
0.0346737	139.339
0.0348739	139.741
0.0350752	140.144
0.0352777	140.548
0.0354813	140.953
0.0356862	141.359
0.0358922	141.767
0.0360994	142.175
0.0363078	142.585
0.0365174	142.996
0.0367282	143.408
0.0369403	143.821
0.0371535	144.236
0.037368	144.652
0.0375837	145.069
0.0378007	145.487
0.0380189	145.906
0.0382384	146.327
0.0384592	146.748
0.0386812	147.171
0.0389045	147.596
0.0391291	148.021
0.039355	148.448
0.0395822	148.876
0.0398107	149.305
0.0400405	149.735
0.0402717	150.167
0.0405042	150.6
0.040738	151.034
0.0409732	151.469
0.0412098	151.906
0.0414477	152.343
0.0416869	152.783
0.0419276	153.223
0.0421697	153.665
0.0424131	154.107
0.042658	154.552
0.0429042	154.997
0.0431519	155.444
0.043401	155.892
0.0436516	156.341
0.0439036	156.792
0.044157	157.244
0.044412	157.697
0.0446684	158.152
0.0449262	158.607
0.0451856	159.065
0.0454465	159.523
0.0457088	159.983
0.0459727	160.444
0.0462381	160.907
0.046505	161.37
0.0467735	161.835
0.0470435	162.302
0.0473151	162.77
0.0475883	163.239
0.047863	163.709
0.0481393	164.181
0.0484172	164.655
0.0486968	165.129
0.0489779	165.605
0.0492606	166.082
0.049545	166.561
0.049831	167.041
0.0501187	167.523
0.0504081	168.006
0.0506991	168.49
0.0509918	168.975
0.0512861	169.463
0.0515822	169.951
0.05188	170.441
0.0521795	170.932
0.0524807	171.425
0.0527837	171.919
0.0530884	172.414
0.0533949	172.911
0.0537032	173.41
0.0540132	173.91
0.054325	174.411
0.0546387	174.914
0.0549541	175.418
0.0552713	175.923
0.0555904	176.43
0.0559114	176.939
0.0562341	177.449
0.0565588	177.961
0.0568853	178.473
0.0572137	178.988
0.057544	179.504
0.0578762	180.021
0.0582103	180.54
0.0585464	181.06
0.0588844	181.582
0.0592243	182.106
0.0595662	182.631
0.0599101	183.157
0.060256	183.685
0.0606038	184.214
0.0609537	184.745
0.0613056	185.278
0.0616595	185.812
0.0620155	186.348
0.0623735	186.885
0.0627336	187.423
0.0630957	187.964
0.06346	188.505
0.0638263	189.049
0.0641948	189.594
0.0645654	190.14
0.0649382	190.688
0.0653131	191.238
0.0656901	191.789
0.0660693	192.342
0.0664508	192.896
0.0668344	193.452
0.0672202	194.01
0.0676083	194.569
0.0679986	195.13
0.0683912	195.692
0.068786	196.256
0.0691831	196.822
0.0695825	197.389
0.0699842	197.958
0.0703882	198.529
0.0707946	199.101
0.0712033	199.675
0.0716143	200.251
0.0720278	200.828
0.0724436	201.407
0.0728618	201.987
0.0732825	202.569
0.0737055	203.153
0.074131	203.739
0.074559	204.326
0.0749894	204.915
0.0754223	205.506
0.0758578	206.098
0.0762957	206.692
0.0767361	207.288
0.0771792	207.885
0.0776247	208.484
0.0780728	209.085
0.0785236	209.688
0.0789769	210.292
0.0794328	210.899
0.0798914	211.506
0.0803526	212.116
0.0808165	212.727
0.0812831	213.341
0.0817523	213.956
0.0822243	214.572
0.082699	215.191
0.0831764	215.811
0.0836566	216.433
0.0841395	217.057
0.0846253	217.683
0.0851138	218.31
0.0856052	218.939
0.0860994	219.57
0.0865964	220.203
0.0870964	220.838
0.0875992	221.474
0.0881049	222.113
0.0886135	222.753
0.0891251	223.395
0.0896396	224.039
0.0901571	224.685
0.0906776	225.332
0.0912011	225.982
0.0917276	226.633
0.0922571	227.286
0.0927897	227.942
0.0933254	228.599
0.0938642	229.258
0.0944061	229.918
0.0949511	230.581
0.0954993	231.246
0.0960506	231.912
0.0966051	232.581
0.0971628	233.251
0.0977237	233.923
0.0982879	234.598
0.0988553	235.274
0.099426	235.952
0.1	236.632
0.100577	237.314
0.101158	237.998
0.101742	238.684
0.102329	239.372
0.10292	240.062
0.103514	240.754
0.104112	241.448
0.104713	242.144
0.105317	242.842
0.105925	243.542
0.106537	244.244
0.107152	244.948
0.107771	245.654
0.108393	246.362
0.109018	247.072
0.109648	247.784
0.110281	248.498
0.110917	249.215
0.111558	249.933
0.112202	250.653
0.11285	251.376
0.113501	252.1
0.114156	252.827
0.114815	253.556
0.115478	254.287
0.116145	255.02
0.116815	255.755
0.11749	256.492
0.118168	257.231
0.11885	257.973
0.119536	258.716
0.120226	259.462
0.120921	260.21
0.121619	260.96
0.122321	261.712
0.123027	262.466
0.123737	263.223
0.124451	263.982
0.12517	264.742
0.125893	265.506
0.126619	266.271
0.12735	267.038
0.128086	267.808
0.128825	268.58
0.129569	269.354
0.130317	270.13
0.131069	270.909
0.131826	271.69
0.132587	272.473
0.133352	273.258
0.134122	274.046
0.134896	274.836
0.135675	275.628
0.136458	276.423
0.137246	277.219
0.138038	278.018
0.138835	278.82
0.139637	279.623
0.140443	280.429
0.141254	281.238
0.142069	282.048
0.142889	282.861
0.143714	283.677
0.144544	284.494
0.145378	285.314
0.146218	286.137
0.147062	286.961
0.147911	287.789
0.148765	288.618
0.149624	289.45
0.150487	290.284
0.151356	291.121
0.15223	291.96
0.153109	292.802
0.153993	293.646
0.154882	294.492
0.155776	295.341
0.156675	296.192
0.15758	297.046
0.158489	297.902
0.159404	298.761
0.160325	299.622
0.16125	300.486
0.162181	301.352
0.163117	302.22
0.164059	303.091
0.165006	303.965
0.165959	304.841
0.166917	305.72
0.16788	306.601
0.16885	307.485
0.169824	308.371
0.170805	309.26
0.171791	310.151
0.172783	311.045
0.17378	311.942
0.174783	312.841
0.175792	313.743
0.176807	314.647
0.177828	315.554
0.178855	316.463
0.179887	317.376
0.180926	318.29
0.18197	319.208
0.183021	320.128
0.184077	321.051
0.18514	321.976
0.186209	322.904
0.187284	323.835
0.188365	324.768
0.189452	325.704
0.190546	326.643
0.191646	327.585
0.192752	328.529
0.193865	329.476
0.194984	330.426
0.19611	331.378
0.197242	332.333
0.198381	333.291
0.199526	334.252
0.200678	335.215
0.201837	336.181
0.203002	337.15
0.204174	338.122
0.205353	339.097
0.206538	340.074
0.20773	341.054
0.20893	342.037
0.210136	343.023
0.211349	344.012
0.212569	345.004
0.213796	345.998
0.21503	346.995
0.216272	347.995
0.21752	348.999
0.218776	350.004
0.220039	351.013
0.221309	352.025
0.222587	353.04
0.223872	354.057
0.225165	355.078
0.226464	356.101
0.227772	357.128
0.229087	358.157
0.230409	359.189
0.231739	360.225
0.233077	361.263
0.234423	362.304
0.235776	363.349
0.237137	364.396
0.238506	365.446
0.239883	366.5
0.241268	367.556
0.242661	368.616
0.244062	369.678
0.245471	370.744
0.246888	371.812
0.248313	372.884
0.249747	373.959
0.251189	375.037
0.252639	376.118
0.254097	377.202
0.255564	378.289
0.25704	379.379
0.258523	380.473
0.260016	381.569
0.261517	382.669
0.263027	383.772
0.264545	384.878
0.266073	385.988
0.267609	387.1
0.269153	388.216
0.270707	389.335
0.27227	390.457
0.273842	391.583
0.275423	392.711
0.277013	393.843
0.278612	394.979
0.280221	396.117
0.281838	397.259
0.283465	398.404
0.285102	399.552
0.286748	400.704
0.288403	401.859
0.290068	403.017
0.291743	404.179
0.293427	405.344
0.295121	406.512
0.296825	407.684
0.298538	408.859
0.300262	410.038
0.301995	411.219
0.303739	412.405
0.305492	413.593
0.307256	414.786
0.30903	415.981
0.310814	417.18
0.312608	418.383
0.314413	419.589
0.316228	420.798
0.318053	422.011
0.31989	423.227
0.321736	424.447
0.323594	425.671
0.325462	426.898
0.327341	428.128
0.32923	429.362
0.331131	430.6
0.333043	431.841
0.334965	433.085
0.336899	434.334
0.338844	435.586
0.3408	436.841
0.342768	438.1
0.344747	439.363
0.346737	440.63
0.348739	441.9
0.350752	443.173
0.352777	444.451
0.354813	445.732
0.356862	447.017
0.358922	448.305
0.360994	449.597
0.363078	450.893
0.365174	452.193
0.367282	453.496
0.369403	454.803
0.371535	456.114
0.37368	457.429
0.375837	458.747
0.378007	460.07
0.380189	461.396
0.382384	462.726
0.384592	464.059
0.386812	465.397
0.389045	466.738
0.391291	468.084
0.39355	469.433
0.395822	470.786
0.398107	472.143
0.400405	473.504
0.402717	474.869
0.405042	476.238
0.40738	477.61
0.409732	478.987
0.412098	480.368
0.414477	481.752
0.416869	483.141
0.419276	484.533
0.421697	485.93
0.424131	487.331
0.42658	488.735
0.429042	490.144
0.431519	491.557
0.43401	492.974
0.436516	494.394
0.439036	495.82
0.44157	497.249
0.44412	498.682
0.446684	500.119
0.449262	501.561
0.451856	503.007
0.454465	504.456
0.457088	505.91
0.459727	507.369
0.462381	508.831
0.46505	510.298
0.467735	511.769
0.470435	513.244
0.473151	514.723
0.475883	516.207
0.47863	517.695
0.481393	519.187
0.484172	520.683
0.486968	522.184
0.489779	523.689
0.492606	525.199
0.49545	526.712
0.49831	528.231
0.501187	529.845
0.504081	531.598
0.506991	533.36
0.509918	535.132
0.512861	536.914
0.515822	538.706
0.5188	540.507
0.521795	542.318
0.524807	544.139
0.527837	545.97
0.530884	547.811
0.533949	549.661
0.537032	551.522
0.540132	553.392
0.54325	555.272
0.546387	557.163
0.549541	559.063
0.552713	560.974
0.555904	562.894
0.559114	564.825
0.562341	566.766
0.565588	568.717
0.568853	570.678
0.572137	572.649
0.57544	574.63
0.578762	576.622
0.582103	578.624
0.585464	580.636
0.588844	582.658
0.592243	584.691
0.595662	586.733
0.599101	588.786
0.60256	590.789
0.606038	592.78
0.609537	594.78
0.613056	596.791
