Stopping power dEdx from Ionisation for O16[0.0] Z = 8 in Water, process name: ionIoni
E [MeV]	dEdx [MeV/mm]
0.001	24.122
0.00100577	24.1919
0.00101158	24.2621
0.00101742	24.3324
0.00102329	24.403
0.0010292	24.4738
0.00103514	24.5447
0.00104112	24.6159
0.00104713	24.6873
0.00105317	24.7588
0.00105925	24.8306
0.00106537	24.9026
0.00107152	24.9748
0.00107771	25.0472
0.00108393	25.1199
0.00109018	25.1927
0.00109648	25.2657
0.00110281	25.339
0.00110917	25.4124
0.00111558	25.4861
0.00112202	25.56
0.0011285	25.6341
0.00113501	25.7084
0.00114156	25.7829
0.00114815	25.8577
0.00115478	25.9326
0.00116145	26.0078
0.00116815	26.0832
0.0011749	26.1588
0.00118168	26.2346
0.0011885	26.3107
0.00119536	26.3869
0.00120226	26.4634
0.00120921	26.5401
0.00121619	26.617
0.00122321	26.6942
0.00123027	26.7716
0.00123737	26.8491
0.00124451	26.927
0.0012517	27.005
0.00125893	27.0833
0.00126619	27.1617
0.0012735	27.2405
0.00128086	27.3194
0.00128825	27.3986
0.00129569	27.478
0.00130317	27.5576
0.00131069	27.6375
0.00131826	27.7175
0.00132587	27.7979
0.00133352	27.8784
0.00134122	27.9592
0.00134896	28.0402
0.00135675	28.1214
0.00136458	28.2029
0.00137246	28.2846
0.00138038	28.3666
0.00138835	28.4488
0.00139637	28.5312
0.00140443	28.6139
0.00141254	28.6968
0.00142069	28.7799
0.00142889	28.8633
0.00143714	28.9469
0.00144544	29.0308
0.00145378	29.1149
0.00146218	29.1992
0.00147062	29.2838
0.00147911	29.3686
0.00148765	29.4537
0.00149624	29.539
0.00150487	29.6246
0.00151356	29.7104
0.0015223	29.7965
0.00153109	29.8828
0.00153993	29.9693
0.00154882	30.0561
0.00155776	30.1432
0.00156675	30.2305
0.0015758	30.3181
0.00158489	30.4059
0.00159404	30.4939
0.00160325	30.5823
0.0016125	30.6708
0.00162181	30.7597
0.00163117	30.8488
0.00164059	30.9381
0.00165006	31.0277
0.00165959	31.1176
0.00166917	31.2077
0.0016788	31.298
0.0016885	31.3887
0.00169824	31.4796
0.00170805	31.5707
0.00171791	31.6622
0.00172783	31.7539
0.0017378	31.8458
0.00174783	31.938
0.00175792	32.0305
0.00176807	32.1233
0.00177828	32.2163
0.00178855	32.3096
0.00179887	32.4031
0.00180926	32.4969
0.0018197	32.591
0.00183021	32.6854
0.00184077	32.78
0.0018514	32.8749
0.00186209	32.9701
0.00187284	33.0656
0.00188365	33.1613
0.00189452	33.2573
0.00190546	33.3536
0.00191646	33.4502
0.00192752	33.547
0.00193865	33.6441
0.00194984	33.7415
0.0019611	33.8392
0.00197242	33.9372
0.00198381	34.0354
0.00199526	34.1339
0.00200678	34.2327
0.00201837	34.3318
0.00203002	34.4312
0.00204174	34.5309
0.00205353	34.6308
0.00206538	34.7311
0.0020773	34.8316
0.0020893	34.9324
0.00210136	35.0336
0.00211349	35.135
0.00212569	35.2367
0.00213796	35.3386
0.0021503	35.4409
0.00216272	35.5435
0.0021752	35.6464
0.00218776	35.7495
0.00220039	35.853
0.00221309	35.9568
0.00222587	36.0608
0.00223872	36.1652
0.00225165	36.2699
0.00226464	36.3748
0.00227772	36.4801
0.00229087	36.5857
0.00230409	36.6916
0.00231739	36.7978
0.00233077	36.9042
0.00234423	37.011
0.00235776	37.1181
0.00237137	37.2256
0.00238506	37.3333
0.00239883	37.4413
0.00241268	37.5497
0.00242661	37.6583
0.00244062	37.7673
0.00245471	37.8766
0.00246888	37.9862
0.00248313	38.0961
0.00249747	38.2063
0.00251189	38.3169
0.00252639	38.4277
0.00254097	38.5389
0.00255564	38.6504
0.0025704	38.7623
0.00258523	38.8744
0.00260016	38.9869
0.00261517	39.0997
0.00263027	39.2128
0.00264545	39.3263
0.00266073	39.44
0.00267609	39.5541
0.00269153	39.6686
0.00270707	39.7833
0.0027227	39.8984
0.00273842	40.0139
0.00275423	40.1296
0.00277013	40.2457
0.00278612	40.3621
0.00280221	40.4789
0.00281838	40.596
0.00283465	40.7134
0.00285102	40.8312
0.00286748	40.9493
0.00288403	41.0678
0.00290068	41.1866
0.00291743	41.3057
0.00293427	41.4252
0.00295121	41.545
0.00296825	41.6652
0.00298538	41.7857
0.00300262	41.9066
0.00301995	42.0278
0.00303739	42.1494
0.00305492	42.2713
0.00307256	42.3936
0.0030903	42.5162
0.00310814	42.6391
0.00312608	42.7625
0.00314413	42.8862
0.00316228	43.0102
0.00318053	43.1346
0.0031989	43.2593
0.00321736	43.3845
0.00323594	43.5099
0.00325462	43.6358
0.00327341	43.762
0.0032923	43.8885
0.00331131	44.0155
0.00333043	44.1428
0.00334965	44.2704
0.00336899	44.3984
0.00338844	44.5268
0.003408	44.6556
0.00342768	44.7847
0.00344747	44.9143
0.00346737	45.0441
0.00348739	45.1744
0.00350752	45.305
0.00352777	45.436
0.00354813	45.5674
0.00356862	45.6992
0.00358922	45.8313
0.00360994	45.9639
0.00363078	46.0968
0.00365174	46.2301
0.00367282	46.3638
0.00369403	46.4978
0.00371535	46.6323
0.0037368	46.7671
0.00375837	46.9023
0.00378007	47.0379
0.00380189	47.1739
0.00382384	47.3103
0.00384592	47.4471
0.00386812	47.5843
0.00389045	47.7219
0.00391291	47.8599
0.0039355	47.9983
0.00395822	48.137
0.00398107	48.2762
0.00400405	48.4158
0.00402717	48.5558
0.00405042	48.6961
0.0040738	48.8369
0.00409732	48.9781
0.00412098	49.1197
0.00414477	49.2617
0.00416869	49.4041
0.00419276	49.547
0.00421697	49.6902
0.00424131	49.8338
0.0042658	49.9779
0.00429042	50.1224
0.00431519	50.2673
0.0043401	50.4126
0.00436516	50.5583
0.00439036	50.7045
0.0044157	50.8511
0.0044412	50.998
0.00446684	51.1455
0.00449262	51.2933
0.00451856	51.4416
0.00454465	51.5903
0.00457088	51.7394
0.00459727	51.889
0.00462381	52.039
0.0046505	52.1894
0.00467735	52.3402
0.00470435	52.4915
0.00473151	52.6432
0.00475883	52.7954
0.0047863	52.948
0.00481393	53.101
0.00484172	53.2545
0.00486968	53.4085
0.00489779	53.5628
0.00492606	53.7176
0.0049545	53.8729
0.0049831	54.0286
0.00501187	54.1848
0.00504081	54.3414
0.00506991	54.4984
0.00509918	54.6559
0.00512861	54.8139
0.00515822	54.9723
0.005188	55.1312
0.00521795	55.2905
0.00524807	55.4503
0.00527837	55.6106
0.00530884	55.7713
0.00533949	55.9325
0.00537032	56.0941
0.00540132	56.2562
0.0054325	56.4188
0.00546387	56.5818
0.00549541	56.7453
0.00552713	56.9093
0.00555904	57.0738
0.00559114	57.2387
0.00562341	57.4041
0.00565588	57.57
0.00568853	57.7364
0.00572137	57.9032
0.0057544	58.0705
0.00578762	58.2383
0.00582103	58.4066
0.00585464	58.5754
0.00588844	58.7447
0.00592243	59.0617
0.00595662	59.2319
0.00599101	59.4026
0.0060256	59.5739
0.00606038	59.7456
0.00609537	59.9178
0.00613056	60.0905
0.00616595	60.2637
0.00620155	60.4374
0.00623735	60.6116
0.00627336	60.7863
0.00630957	60.9615
0.006346	61.1372
0.00638263	61.3134
0.00641948	61.4902
0.00645654	61.6674
0.00649382	61.8452
0.00653131	62.0234
0.00656901	62.2022
0.00660693	62.3815
0.00664508	62.5613
0.00668344	62.7416
0.00672202	62.9225
0.00676083	63.1038
0.00679986	63.2857
0.00683912	63.4681
0.0068786	63.6511
0.00691831	63.8345
0.00695825	64.0185
0.00699842	64.2031
0.00703882	64.3881
0.00707946	64.5737
0.00712033	64.7598
0.00716143	64.9465
0.00720278	65.1337
0.00724436	65.3214
0.00728618	65.5097
0.00732825	65.6985
0.00737055	65.8879
0.0074131	66.0778
0.0074559	66.2683
0.00749894	66.4593
0.00754223	66.6509
0.00758578	66.843
0.00762957	67.0356
0.00767361	67.2289
0.00771792	67.4226
0.00776247	67.617
0.00780728	67.8119
0.00785236	68.0073
0.00789769	68.2033
0.00794328	68.3999
0.00798914	68.5971
0.00803526	68.7948
0.00808165	68.9931
0.00812831	69.192
0.00817523	69.3914
0.00822243	69.5914
0.0082699	69.792
0.00831764	69.9932
0.00836566	70.1949
0.00841395	70.3973
0.00846253	70.6002
0.00851138	70.8037
0.00856052	71.0077
0.00860994	71.2124
0.00865964	71.4177
0.00870964	71.6235
0.00875992	71.83
0.00881049	72.037
0.00886135	72.2447
0.00891251	72.4529
0.00896396	72.6617
0.00901571	72.8712
0.00906776	73.0812
0.00912011	73.2919
0.00917276	73.5031
0.00922571	73.715
0.00927897	73.9274
0.00933254	74.1405
0.00938642	74.3542
0.00944061	74.5686
0.00949511	74.7835
0.00954993	74.999
0.00960506	75.2152
0.00966051	75.432
0.00971628	75.6494
0.00977237	75.8675
0.00982879	76.0862
0.00988553	76.3055
0.0099426	76.5254
0.01	76.746
0.0100577	76.9672
0.0101158	77.1891
0.0101742	77.4115
0.0102329	77.6347
0.010292	77.8584
0.0103514	78.0829
0.0104112	78.3079
0.0104713	78.5336
0.0105317	78.76
0.0105925	78.987
0.0106537	79.2147
0.0107152	79.443
0.0107771	79.672
0.0108393	79.9016
0.0109018	80.1319
0.0109648	80.3629
0.0110281	80.5946
0.0110917	80.8269
0.0111558	81.0598
0.0112202	81.2935
0.011285	81.5278
0.0113501	81.7628
0.0114156	81.9985
0.0114815	82.2348
0.0115478	82.4718
0.0116145	82.7096
0.0116815	82.948
0.011749	83.187
0.0118168	83.4268
0.011885	83.6673
0.0119536	83.9085
0.0120226	84.1503
0.0120921	84.3929
0.0121619	84.6361
0.0122321	84.8801
0.0123027	85.1247
0.0123737	85.3701
0.0124451	85.6162
0.012517	85.8629
0.0125893	86.1104
0.0126619	86.3586
0.012735	86.6075
0.0128086	86.8572
0.0128825	87.1075
0.0129569	87.3586
0.0130317	87.6104
0.0131069	87.8629
0.0131826	88.1162
0.0132587	88.3702
0.0133352	88.6249
0.0134122	88.8803
0.0134896	89.1365
0.0135675	89.3935
0.0136458	89.6511
0.0137246	89.9095
0.0138038	90.1687
0.0138835	90.4286
0.0139637	90.6892
0.0140443	90.9506
0.0141254	91.2128
0.0142069	91.4757
0.0142889	91.7394
0.0143714	92.0038
0.0144544	92.269
0.0145378	92.5349
0.0146218	92.8017
0.0147062	93.0691
0.0147911	93.3374
0.0148765	93.6064
0.0149624	93.8762
0.0150487	94.1468
0.0151356	94.4182
0.015223	94.6903
0.0153109	94.9633
0.0153993	95.237
0.0154882	95.5115
0.0155776	95.7868
0.0156675	96.0629
0.015758	96.3398
0.0158489	96.6175
0.0159404	96.896
0.0160325	97.1753
0.016125	97.4554
0.0162181	97.7363
0.0163117	98.018
0.0164059	98.3005
0.0165006	98.5838
0.0165959	98.868
0.0166917	99.153
0.016788	99.4388
0.016885	99.7254
0.0169824	100.013
0.0170805	100.301
0.0171791	100.59
0.0172783	100.88
0.017378	101.171
0.0174783	101.463
0.0175792	101.755
0.0176807	102.048
0.0177828	102.342
0.0178855	102.637
0.0179887	102.933
0.0180926	103.23
0.018197	103.527
0.0183021	103.826
0.0184077	104.125
0.018514	104.425
0.0186209	104.726
0.0187284	105.028
0.0188365	105.331
0.0189452	105.634
0.0190546	105.939
0.0191646	106.244
0.0192752	106.551
0.0193865	106.858
0.0194984	107.166
0.019611	107.475
0.0197242	107.784
0.0198381	108.095
0.0199526	108.407
0.0200678	108.719
0.0201837	109.032
0.0203002	109.347
0.0204174	109.662
0.0205353	109.978
0.0206538	110.295
0.020773	110.613
0.020893	110.932
0.0210136	111.251
0.0211349	111.572
0.0212569	111.894
0.0213796	112.216
0.021503	112.54
0.0216272	112.864
0.021752	113.189
0.0218776	113.516
0.0220039	113.843
0.0221309	114.171
0.0222587	114.5
0.0223872	114.83
0.0225165	115.161
0.0226464	115.493
0.0227772	115.826
0.0229087	116.16
0.0230409	116.495
0.0231739	116.83
0.0233077	117.167
0.0234423	117.505
0.0235776	117.844
0.0237137	118.183
0.0238506	118.524
0.0239883	118.865
0.0241268	119.208
0.0242661	119.552
0.0244062	119.896
0.0245471	120.242
0.0246888	120.588
0.0248313	120.936
0.0249747	121.285
0.0251189	121.634
0.0252639	121.985
0.0254097	122.336
0.0255564	122.689
0.025704	123.043
0.0258523	123.397
0.0260016	123.753
0.0261517	124.11
0.0263027	124.467
0.0264545	124.826
0.0266073	125.186
0.0267609	125.547
0.0269153	125.909
0.0270707	126.272
0.027227	126.636
0.0273842	127.001
0.0275423	127.367
0.0277013	127.734
0.0278612	128.102
0.0280221	128.471
0.0281838	128.841
0.0283465	129.213
0.0285102	129.585
0.0286748	129.959
0.0288403	130.333
0.0290068	130.709
0.0291743	131.086
0.0293427	131.464
0.0295121	131.843
0.0296825	132.223
0.0298538	132.604
0.0300262	132.986
0.0301995	133.369
0.0303739	133.754
0.0305492	134.139
0.0307256	134.526
0.030903	134.914
0.0310814	135.302
0.0312608	135.692
0.0314413	136.084
0.0316228	136.476
0.0318053	136.869
0.031989	137.264
0.0321736	137.659
0.0323594	138.056
0.0325462	138.454
0.0327341	138.853
0.032923	139.253
0.0331131	139.655
0.0333043	140.057
0.0334965	140.461
0.0336899	140.866
0.0338844	141.272
0.03408	141.679
0.0342768	142.087
0.0344747	142.497
0.0346737	142.908
0.0348739	143.32
0.0350752	143.733
0.0352777	144.147
0.0354813	144.563
0.0356862	144.979
0.0358922	145.397
0.0360994	145.816
0.0363078	146.236
0.0365174	146.658
0.0367282	147.081
0.0369403	147.505
0.0371535	147.93
0.037368	148.356
0.0375837	148.784
0.0378007	149.213
0.0380189	149.643
0.0382384	150.074
0.0384592	150.507
0.0386812	150.94
0.0389045	151.376
0.0391291	151.812
0.039355	152.249
0.0395822	152.688
0.0398107	153.128
0.0400405	153.57
0.0402717	154.012
0.0405042	154.456
0.040738	154.902
0.0409732	155.348
0.0412098	155.796
0.0414477	156.245
0.0416869	156.695
0.0419276	157.147
0.0421697	157.6
0.0424131	158.054
0.042658	158.51
0.0429042	158.967
0.0431519	159.425
0.043401	159.884
0.0436516	160.345
0.0439036	160.807
0.044157	161.271
0.044412	161.736
0.0446684	162.202
0.0449262	162.669
0.0451856	163.138
0.0454465	163.608
0.0457088	164.08
0.0459727	164.553
0.0462381	165.027
0.046505	165.503
0.0467735	165.98
0.0470435	166.458
0.0473151	166.938
0.0475883	167.419
0.047863	167.902
0.0481393	168.386
0.0484172	168.871
0.0486968	169.358
0.0489779	169.846
0.0492606	170.336
0.049545	170.827
0.049831	171.319
0.0501187	171.813
0.0504081	172.308
0.0506991	172.805
0.0509918	173.303
0.0512861	173.802
0.0515822	174.303
0.05188	174.806
0.0521795	175.31
0.0524807	175.815
0.0527837	176.322
0.0530884	176.83
0.0533949	177.34
0.0537032	177.851
0.0540132	178.363
0.054325	178.877
0.0546387	179.393
0.0549541	179.91
0.0552713	180.429
0.0555904	180.949
0.0559114	181.47
0.0562341	181.993
0.0565588	182.518
0.0568853	183.044
0.0572137	183.572
0.057544	184.101
0.0578762	184.631
0.0582103	185.164
0.0585464	185.697
0.0588844	186.233
0.0592243	186.769
0.0595662	187.308
0.0599101	187.848
0.060256	188.389
0.0606038	188.932
0.0609537	189.477
0.0613056	190.023
0.0616595	190.571
0.0620155	191.12
0.0623735	191.671
0.0627336	192.223
0.0630957	192.777
0.06346	193.333
0.0638263	193.89
0.0641948	194.449
0.0645654	195.009
0.0649382	195.572
0.0653131	196.135
0.0656901	196.701
0.0660693	197.268
0.0664508	197.836
0.0668344	198.406
0.0672202	198.978
0.0676083	199.552
0.0679986	200.127
0.0683912	200.704
0.068786	201.282
0.0691831	201.863
0.0695825	202.444
0.0699842	203.028
0.0703882	203.613
0.0707946	204.2
0.0712033	204.789
0.0716143	205.379
0.0720278	205.971
0.0724436	206.565
0.0728618	207.16
0.0732825	207.757
0.0737055	208.356
0.074131	208.956
0.074559	209.559
0.0749894	210.163
0.0754223	210.768
0.0758578	211.376
0.0762957	211.985
0.0767361	212.596
0.0771792	213.209
0.0776247	213.824
0.0780728	214.44
0.0785236	215.058
0.0789769	215.678
0.0794328	216.3
0.0798914	216.923
0.0803526	217.548
0.0808165	218.175
0.0812831	218.804
0.0817523	219.435
0.0822243	220.067
0.082699	220.702
0.0831764	221.338
0.0836566	221.976
0.0841395	222.616
0.0846253	223.257
0.0851138	223.901
0.0856052	224.546
0.0860994	225.193
0.0865964	225.843
0.0870964	226.493
0.0875992	227.146
0.0881049	227.801
0.0886135	228.458
0.0891251	229.116
0.0896396	229.777
0.0901571	230.439
0.0906776	231.103
0.0912011	231.769
0.0917276	232.437
0.0922571	233.107
0.0927897	233.779
0.0933254	234.453
0.0938642	235.129
0.0944061	235.806
0.0949511	236.486
0.0954993	237.168
0.0960506	237.851
0.0966051	238.537
0.0971628	239.225
0.0977237	239.914
0.0982879	240.606
0.0988553	241.299
0.099426	241.995
0.1	242.692
0.100577	243.392
0.101158	244.093
0.101742	244.797
0.102329	245.502
0.10292	246.21
0.103514	246.92
0.104112	247.631
0.104713	248.345
0.105317	249.061
0.105925	249.779
0.106537	250.499
0.107152	251.221
0.107771	251.945
0.108393	252.671
0.109018	253.399
0.109648	254.13
0.110281	254.862
0.110917	255.597
0.111558	256.334
0.112202	257.073
0.11285	257.814
0.113501	258.557
0.114156	259.302
0.114815	260.049
0.115478	260.799
0.116145	261.551
0.116815	262.304
0.11749	263.061
0.118168	263.819
0.11885	264.579
0.119536	265.342
0.120226	266.107
0.120921	266.874
0.121619	267.643
0.122321	268.414
0.123027	269.188
0.123737	269.964
0.124451	270.742
0.12517	271.522
0.125893	272.305
0.126619	273.09
0.12735	273.877
0.128086	274.667
0.128825	275.458
0.129569	276.252
0.130317	277.048
0.131069	277.847
0.131826	278.648
0.132587	279.451
0.133352	280.257
0.134122	281.064
0.134896	281.874
0.135675	282.687
0.136458	283.502
0.137246	284.319
0.138038	285.138
0.138835	285.96
0.139637	286.785
0.140443	287.611
0.141254	288.44
0.142069	289.272
0.142889	290.105
0.143714	290.942
0.144544	291.78
0.145378	292.621
0.146218	293.465
0.147062	294.31
0.147911	295.159
0.148765	296.01
0.149624	296.863
0.150487	297.718
0.151356	298.577
0.15223	299.437
0.153109	300.3
0.153993	301.166
0.154882	302.034
0.155776	302.904
0.156675	303.778
0.15758	304.653
0.158489	305.531
0.159404	306.412
0.160325	307.295
0.16125	308.181
0.162181	309.069
0.163117	309.96
0.164059	310.853
0.165006	311.749
0.165959	312.648
0.166917	313.549
0.16788	314.453
0.16885	315.359
0.169824	316.268
0.170805	317.18
0.171791	318.094
0.172783	319.011
0.17378	319.931
0.174783	320.853
0.175792	321.778
0.176807	322.705
0.177828	323.635
0.178855	324.568
0.179887	325.504
0.180926	326.442
0.18197	327.383
0.183021	328.326
0.184077	329.273
0.18514	330.222
0.186209	331.174
0.187284	332.128
0.188365	333.085
0.189452	334.046
0.190546	335.008
0.191646	335.974
0.192752	336.942
0.193865	337.914
0.194984	338.888
0.19611	339.864
0.197242	340.844
0.198381	341.826
0.199526	342.812
0.200678	343.8
0.201837	344.791
0.203002	345.785
0.204174	346.781
0.205353	347.781
0.206538	348.783
0.20773	349.789
0.20893	350.797
0.210136	351.808
0.211349	352.822
0.212569	353.839
0.213796	354.859
0.21503	355.882
0.216272	356.908
0.21752	357.936
0.218776	358.968
0.220039	360.003
0.221309	361.04
0.222587	362.081
0.223872	363.125
0.225165	364.171
0.226464	365.221
0.227772	366.274
0.229087	367.329
0.230409	368.388
0.231739	369.45
0.233077	370.515
0.234423	371.583
0.235776	372.654
0.237137	373.728
0.238506	374.805
0.239883	375.886
0.241268	376.969
0.242661	378.056
0.244062	379.145
0.245471	380.238
0.246888	381.334
0.248313	382.433
0.249747	383.536
0.251189	384.641
0.252639	385.75
0.254097	386.862
0.255564	387.977
0.25704	389.095
0.258523	390.217
0.260016	391.341
0.261517	392.469
0.263027	393.601
0.264545	394.735
0.266073	395.873
0.267609	397.014
0.269153	398.158
0.270707	399.306
0.27227	400.457
0.273842	401.611
0.275423	402.769
0.277013	403.93
0.278612	405.094
0.280221	406.262
0.281838	407.433
0.283465	408.607
0.285102	409.785
0.286748	410.966
0.288403	412.15
0.290068	413.338
0.291743	414.53
0.293427	415.725
0.295121	416.923
0.296825	418.125
0.298538	419.33
0.300262	420.538
0.301995	421.751
0.303739	422.966
0.305492	424.185
0.307256	425.408
0.30903	426.634
0.310814	427.864
0.312608	429.097
0.314413	430.334
0.316228	431.574
0.318053	432.818
0.31989	434.066
0.321736	435.317
0.323594	436.572
0.325462	437.83
0.327341	439.092
0.32923	440.358
0.331131	441.627
0.333043	442.9
0.334965	444.177
0.336899	445.457
0.338844	446.741
0.3408	448.029
0.342768	449.32
0.344747	450.615
0.346737	451.914
0.348739	453.216
0.350752	454.523
0.352777	455.833
0.354813	457.147
0.356862	458.464
0.358922	459.786
0.360994	461.111
0.363078	462.44
0.365174	463.773
0.367282	465.11
0.369403	466.451
0.371535	467.795
0.37368	469.144
0.375837	470.496
0.378007	471.852
0.380189	473.212
0.382384	474.576
0.384592	475.944
0.386812	477.316
0.389045	478.691
0.391291	480.071
0.39355	481.455
0.395822	482.843
0.398107	484.234
0.400405	485.657
0.402717	487.21
0.405042	488.772
0.40738	490.342
0.409732	491.921
0.412098	493.508
0.414477	495.103
0.416869	496.707
0.419276	498.32
0.421697	499.941
0.424131	501.57
0.42658	503.209
0.429042	504.855
0.431519	506.511
0.43401	508.175
0.436516	509.847
0.439036	511.529
0.44157	513.219
0.44412	514.917
0.446684	516.624
0.449262	518.34
0.451856	520.065
0.454465	521.798
0.457088	523.54
0.459727	525.291
0.462381	527.05
0.46505	528.818
0.467735	530.595
0.470435	532.38
0.473151	534.174
0.475883	535.977
0.47863	537.788
0.481393	539.561
0.484172	541.297
0.486968	543.04
0.489779	544.791
0.492606	546.551
0.49545	548.318
0.49831	550.094
0.501187	551.877
0.504081	553.669
0.506991	555.469
0.509918	557.276
0.512861	559.092
0.515822	560.916
0.5188	562.747
0.521795	564.586
0.524807	566.434
0.527837	568.289
0.530884	570.151
0.533949	572.022
0.537032	573.9
0.540132	575.786
0.54325	577.68
0.546387	579.581
0.549541	581.489
0.552713	583.405
0.555904	585.329
0.559114	587.259
0.562341	589.198
0.565588	591.143
0.568853	593.095
0.572137	595.055
0.57544	597.022
0.578762	598.995
0.582103	600.976
0.585464	602.963
0.588844	604.957
0.592243	606.958
0.595662	608.966
0.599101	610.979
0.60256	613
0.606038	615.026
0.609537	617.059
0.613056	619.098
