Stopping power dEdx from Ionisation for P31[0.0] Z = 15 in G4_Si, process name: ionIoni
E [MeV]	dEdx [MeV/mm]
0.001	32.4765
0.00100577	32.5709
0.00101158	32.6656
0.00101742	32.7605
0.00102329	32.8557
0.0010292	32.9512
0.00103514	33.0469
0.00104112	33.143
0.00104713	33.2393
0.00105317	33.3358
0.00105925	33.4327
0.00106537	33.5298
0.00107152	33.6273
0.00107771	33.725
0.00108393	33.8229
0.00109018	33.9212
0.00109648	34.0197
0.00110281	34.1186
0.00110917	34.2177
0.00111558	34.3171
0.00112202	34.4168
0.0011285	34.5168
0.00113501	34.617
0.00114156	34.7176
0.00114815	34.8184
0.00115478	34.9195
0.00116145	35.021
0.00116815	35.1227
0.0011749	35.2247
0.00118168	35.327
0.0011885	35.4296
0.00119536	35.5325
0.00120226	35.6357
0.00120921	35.7392
0.00121619	35.843
0.00122321	35.947
0.00123027	36.0514
0.00123737	36.1561
0.00124451	36.2611
0.0012517	36.3664
0.00125893	36.472
0.00126619	36.5779
0.0012735	36.6841
0.00128086	36.7906
0.00128825	36.8974
0.00129569	37.0045
0.00130317	37.112
0.00131069	37.2197
0.00131826	37.3278
0.00132587	37.4361
0.00133352	37.5448
0.00134122	37.6538
0.00134896	37.7631
0.00135675	37.8727
0.00136458	37.9827
0.00137246	38.0929
0.00138038	38.2035
0.00138835	38.3144
0.00139637	38.4256
0.00140443	38.5371
0.00141254	38.649
0.00142069	38.7611
0.00142889	38.8736
0.00143714	38.9865
0.00144544	39.0996
0.00145378	39.2131
0.00146218	39.3269
0.00147062	39.441
0.00147911	39.5555
0.00148765	39.6702
0.00149624	39.7854
0.00150487	39.9008
0.00151356	40.0166
0.0015223	40.1327
0.00153109	40.2492
0.00153993	40.3659
0.00154882	40.4831
0.00155776	40.6005
0.00156675	40.7183
0.0015758	40.8365
0.00158489	40.9549
0.00159404	41.0738
0.00160325	41.1929
0.0016125	41.3124
0.00162181	41.4323
0.00163117	41.5525
0.00164059	41.673
0.00165006	41.7939
0.00165959	41.9152
0.00166917	42.0367
0.0016788	42.1587
0.0016885	42.281
0.00169824	42.4036
0.00170805	42.5266
0.00171791	42.65
0.00172783	42.7737
0.0017378	42.8977
0.00174783	43.0221
0.00175792	43.1469
0.00176807	43.2721
0.00177828	43.3976
0.00178855	43.5234
0.00179887	43.6496
0.00180926	43.7762
0.0018197	43.9032
0.00183021	44.0305
0.00184077	44.1582
0.0018514	44.2862
0.00186209	44.4147
0.00187284	44.5435
0.00188365	44.6726
0.00189452	44.8022
0.00190546	44.9321
0.00191646	45.0623
0.00192752	45.193
0.00193865	45.324
0.00194984	45.4555
0.0019611	45.5872
0.00197242	45.7194
0.00198381	45.852
0.00199526	45.9849
0.00200678	46.1182
0.00201837	46.2519
0.00203002	46.386
0.00204174	46.5205
0.00205353	46.6554
0.00206538	46.7906
0.0020773	46.9262
0.0020893	47.0623
0.00210136	47.1987
0.00211349	47.3355
0.00212569	47.4727
0.00213796	47.6103
0.0021503	47.7483
0.00216272	47.8867
0.0021752	48.0255
0.00218776	48.1647
0.00220039	48.3043
0.00221309	48.4444
0.00222587	48.5848
0.00223872	48.7256
0.00225165	48.8668
0.00226464	49.0084
0.00227772	49.1504
0.00229087	49.2929
0.00230409	49.4357
0.00231739	49.579
0.00233077	49.7227
0.00234423	49.8668
0.00235776	50.0113
0.00237137	50.1562
0.00238506	50.3016
0.00239883	50.4473
0.00241268	50.5935
0.00242661	50.7401
0.00244062	50.8871
0.00245471	51.0346
0.00246888	51.1824
0.00248313	51.3307
0.00249747	51.4795
0.00251189	51.6286
0.00252639	51.7782
0.00254097	51.9282
0.00255564	52.0787
0.0025704	52.2296
0.00258523	52.3809
0.00260016	52.5326
0.00261517	52.6848
0.00263027	52.8375
0.00264545	52.9905
0.00266073	53.144
0.00267609	53.298
0.00269153	53.4524
0.00270707	53.6072
0.0027227	53.7625
0.00273842	53.9183
0.00275423	54.0744
0.00277013	54.2311
0.00278612	54.3882
0.00280221	54.5457
0.00281838	54.7037
0.00283465	54.8621
0.00285102	55.0211
0.00286748	55.1804
0.00288403	55.3402
0.00290068	55.5005
0.00291743	55.6613
0.00293427	55.8225
0.00295121	55.9842
0.00296825	56.1463
0.00298538	56.3089
0.00300262	56.472
0.00301995	56.6355
0.00303739	56.7995
0.00305492	56.964
0.00307256	57.129
0.0030903	57.2944
0.00310814	57.4604
0.00312608	57.6267
0.00314413	57.7936
0.00316228	57.961
0.00318053	58.1288
0.0031989	58.2971
0.00321736	58.4659
0.00323594	58.6352
0.00325462	58.805
0.00327341	58.9753
0.0032923	59.1461
0.00331131	59.3173
0.00333043	59.4891
0.00334965	59.6613
0.00336899	59.834
0.00338844	60.0073
0.003408	60.181
0.00342768	60.3552
0.00344747	60.53
0.00346737	60.7052
0.00348739	60.881
0.00350752	61.0572
0.00352777	61.234
0.00354813	61.4113
0.00356862	61.589
0.00358922	61.7673
0.00360994	61.9462
0.00363078	62.1255
0.00365174	62.3053
0.00367282	62.4857
0.00369403	62.6666
0.00371535	62.848
0.0037368	63.0299
0.00375837	63.2123
0.00378007	63.3953
0.00380189	63.5788
0.00382384	63.7628
0.00384592	63.9474
0.00386812	64.1325
0.00389045	64.3181
0.00391291	64.5043
0.0039355	64.691
0.00395822	64.8782
0.00398107	65.066
0.00400405	65.2543
0.00402717	65.4432
0.00405042	65.6326
0.0040738	65.8225
0.00409732	66.013
0.00412098	66.2041
0.00414477	66.3957
0.00416869	66.5878
0.00419276	66.7805
0.00421697	66.9738
0.00424131	67.1676
0.0042658	67.362
0.00429042	67.5569
0.00431519	67.7524
0.0043401	67.9485
0.00436516	68.1451
0.00439036	68.3423
0.0044157	68.54
0.0044412	68.7384
0.00446684	68.9373
0.00449262	69.1368
0.00451856	69.3368
0.00454465	69.5374
0.00457088	69.7386
0.00459727	69.9404
0.00462381	70.1428
0.0046505	70.3457
0.00467735	70.5493
0.00470435	70.7534
0.00473151	70.9581
0.00475883	71.1634
0.0047863	71.3693
0.00481393	71.5758
0.00484172	71.7829
0.00486968	71.9905
0.00489779	72.1988
0.00492606	72.4077
0.0049545	72.6172
0.0049831	72.8273
0.00501187	73.038
0.00504081	73.2492
0.00506991	73.4612
0.00509918	73.6737
0.00512861	73.8868
0.00515822	74.1005
0.005188	74.3149
0.00521795	74.5299
0.00524807	74.7455
0.00527837	74.9617
0.00530884	75.1785
0.00533949	75.396
0.00537032	75.6141
0.00540132	75.8328
0.0054325	76.0522
0.00546387	76.2721
0.00549541	76.4928
0.00552713	76.714
0.00555904	76.9359
0.00559114	77.1584
0.00562341	77.3816
0.00565588	77.6054
0.00568853	77.8299
0.00572137	78.055
0.0057544	78.2807
0.00578762	78.5072
0.00582103	78.7342
0.00585464	78.9619
0.00588844	79.1903
0.00592243	79.4193
0.00595662	79.649
0.00599101	79.8794
0.0060256	80.1104
0.00606038	80.3421
0.00609537	80.5744
0.00613056	80.8074
0.00616595	81.0411
0.00620155	81.2755
0.00623735	81.5105
0.00627336	81.7462
0.00630957	81.9826
0.006346	82.2197
0.00638263	82.4575
0.00641948	82.6959
0.00645654	82.9351
0.00649382	83.1749
0.00653131	83.4154
0.00656901	83.6566
0.00660693	83.8985
0.00664508	84.1411
0.00668344	84.3844
0.00672202	84.6284
0.00676083	84.8731
0.00679986	85.1185
0.00683912	85.3646
0.0068786	85.6115
0.00691831	85.859
0.00695825	86.1072
0.00699842	86.3562
0.00703882	86.6059
0.00707946	86.8563
0.00712033	87.1074
0.00716143	87.3593
0.00720278	87.6118
0.00724436	87.8652
0.00728618	88.1192
0.00732825	88.3739
0.00737055	88.6294
0.0074131	88.8857
0.0074559	89.1427
0.00749894	89.4004
0.00754223	89.6588
0.00758578	89.918
0.00762957	90.178
0.00767361	90.4387
0.00771792	90.7001
0.00776247	90.9623
0.00780728	91.2253
0.00785236	91.489
0.00789769	91.7535
0.00794328	92.0187
0.00798914	92.2847
0.00803526	92.5515
0.00808165	92.8191
0.00812831	93.0874
0.00817523	93.3565
0.00822243	93.6263
0.0082699	93.897
0.00831764	94.1684
0.00836566	94.4406
0.00841395	94.7136
0.00846253	94.9873
0.00851138	95.2619
0.00856052	95.5373
0.00860994	95.8134
0.00865964	96.0903
0.00870964	96.3681
0.00875992	96.6466
0.00881049	96.926
0.00886135	97.2061
0.00891251	97.4871
0.00896396	97.7688
0.00901571	98.0514
0.00906776	98.3348
0.00912011	98.619
0.00917276	98.9041
0.00922571	99.1899
0.00927897	99.4766
0.00933254	99.7641
0.00938642	100.052
0.00944061	100.342
0.00949511	100.632
0.00954993	100.922
0.00960506	101.214
0.00966051	101.507
0.00971628	101.8
0.00977237	102.094
0.00982879	102.389
0.00988553	102.685
0.0099426	102.982
0.01	103.279
0.0100577	103.578
0.0101158	103.877
0.0101742	104.177
0.0102329	104.478
0.010292	104.78
0.0103514	105.083
0.0104112	105.387
0.0104713	105.691
0.0105317	105.997
0.0105925	106.303
0.0106537	106.61
0.0107152	106.918
0.0107771	107.495
0.0108393	107.805
0.0109018	108.116
0.0109648	108.428
0.0110281	108.74
0.0110917	109.053
0.0111558	109.368
0.0112202	109.683
0.011285	109.999
0.0113501	110.316
0.0114156	110.634
0.0114815	110.953
0.0115478	111.273
0.0116145	111.594
0.0116815	111.915
0.011749	112.238
0.0118168	112.561
0.011885	112.886
0.0119536	113.211
0.0120226	113.538
0.0120921	113.865
0.0121619	114.193
0.0122321	114.522
0.0123027	114.852
0.0123737	115.183
0.0124451	115.515
0.012517	115.848
0.0125893	116.182
0.0126619	116.517
0.012735	116.853
0.0128086	117.19
0.0128825	117.528
0.0129569	117.866
0.0130317	118.206
0.0131069	118.547
0.0131826	118.888
0.0132587	119.231
0.0133352	119.575
0.0134122	119.919
0.0134896	120.265
0.0135675	120.612
0.0136458	120.959
0.0137246	121.308
0.0138038	121.658
0.0138835	122.008
0.0139637	122.36
0.0140443	122.713
0.0141254	123.066
0.0142069	123.421
0.0142889	123.777
0.0143714	124.134
0.0144544	124.491
0.0145378	124.85
0.0146218	125.21
0.0147062	125.571
0.0147911	125.933
0.0148765	126.296
0.0149624	126.66
0.0150487	127.025
0.0151356	127.391
0.015223	127.758
0.0153109	128.127
0.0153993	128.496
0.0154882	128.866
0.0155776	129.238
0.0156675	129.61
0.015758	129.984
0.0158489	130.359
0.0159404	130.734
0.0160325	131.111
0.016125	131.489
0.0162181	131.868
0.0163117	132.248
0.0164059	132.629
0.0165006	133.012
0.0165959	133.395
0.0166917	133.779
0.016788	134.165
0.016885	134.552
0.0169824	134.94
0.0170805	135.329
0.0171791	135.719
0.0172783	136.11
0.017378	136.502
0.0174783	136.896
0.0175792	137.29
0.0176807	137.686
0.0177828	138.083
0.0178855	138.481
0.0179887	138.88
0.0180926	139.28
0.018197	139.682
0.0183021	140.084
0.0184077	140.488
0.018514	140.893
0.0186209	141.299
0.0187284	141.706
0.0188365	142.115
0.0189452	142.525
0.0190546	142.935
0.0191646	143.347
0.0192752	143.76
0.0193865	144.175
0.0194984	144.59
0.019611	145.007
0.0197242	145.425
0.0198381	145.844
0.0199526	146.265
0.0200678	146.686
0.0201837	147.109
0.0203002	147.533
0.0204174	147.958
0.0205353	148.385
0.0206538	148.813
0.020773	149.241
0.020893	149.672
0.0210136	150.103
0.0211349	150.536
0.0212569	150.97
0.0213796	151.405
0.021503	151.841
0.0216272	152.279
0.021752	152.718
0.0218776	153.158
0.0220039	153.599
0.0221309	154.042
0.0222587	154.486
0.0223872	154.931
0.0225165	155.378
0.0226464	155.826
0.0227772	156.275
0.0229087	156.725
0.0230409	157.177
0.0231739	157.63
0.0233077	158.085
0.0234423	158.54
0.0235776	158.997
0.0237137	159.456
0.0238506	159.915
0.0239883	160.376
0.0241268	160.838
0.0242661	161.302
0.0244062	161.767
0.0245471	162.233
0.0246888	162.701
0.0248313	163.17
0.0249747	163.64
0.0251189	164.112
0.0252639	164.585
0.0254097	165.059
0.0255564	165.535
0.025704	166.012
0.0258523	166.491
0.0260016	166.97
0.0261517	167.452
0.0263027	167.934
0.0264545	168.418
0.0266073	168.904
0.0267609	169.391
0.0269153	169.879
0.0270707	170.369
0.027227	170.86
0.0273842	171.352
0.0275423	171.846
0.0277013	172.341
0.0278612	172.838
0.0280221	173.336
0.0281838	173.836
0.0283465	174.337
0.0285102	174.839
0.0286748	175.343
0.0288403	175.849
0.0290068	176.356
0.0291743	176.864
0.0293427	177.374
0.0295121	177.885
0.0296825	178.398
0.0298538	178.912
0.0300262	179.428
0.0301995	179.945
0.0303739	180.464
0.0305492	180.984
0.0307256	181.505
0.030903	182.029
0.0310814	182.553
0.0312608	183.079
0.0314413	183.607
0.0316228	184.136
0.0318053	184.667
0.031989	185.199
0.0321736	185.733
0.0323594	186.269
0.0325462	186.805
0.0327341	187.344
0.032923	187.884
0.0331131	188.425
0.0333043	188.969
0.0334965	189.513
0.0336899	190.059
0.0338844	190.607
0.03408	191.157
0.0342768	191.708
0.0344747	192.26
0.0346737	192.814
0.0348739	193.37
0.0350752	193.928
0.0352777	194.487
0.0354813	195.047
0.0356862	195.609
0.0358922	196.173
0.0360994	196.739
0.0363078	197.306
0.0365174	197.874
0.0367282	198.445
0.0369403	199.017
0.0371535	199.59
0.037368	200.166
0.0375837	200.743
0.0378007	201.321
0.0380189	201.902
0.0382384	202.483
0.0384592	203.067
0.0386812	203.652
0.0389045	204.239
0.0391291	204.828
0.039355	205.418
0.0395822	206.011
0.0398107	206.604
0.0400405	207.2
0.0402717	207.797
0.0405042	208.396
0.040738	208.997
0.0409732	209.599
0.0412098	210.203
0.0414477	210.809
0.0416869	211.417
0.0419276	212.026
0.0421697	212.637
0.0424131	213.25
0.042658	213.865
0.0429042	214.481
0.0431519	215.1
0.043401	215.72
0.0436516	216.341
0.0439036	216.965
0.044157	217.59
0.044412	218.217
0.0446684	218.846
0.0449262	219.477
0.0451856	220.11
0.0454465	220.744
0.0457088	221.381
0.0459727	222.019
0.0462381	222.659
0.046505	223.3
0.0467735	223.944
0.0470435	224.59
0.0473151	225.237
0.0475883	225.886
0.047863	226.537
0.0481393	227.19
0.0484172	227.845
0.0486968	228.502
0.0489779	229.16
0.0492606	229.821
0.049545	230.483
0.049831	231.148
0.0501187	231.814
0.0504081	232.482
0.0506991	233.152
0.0509918	233.824
0.0512861	234.498
0.0515822	235.174
0.05188	235.852
0.0521795	236.532
0.0524807	237.214
0.0527837	237.897
0.0530884	238.583
0.0533949	239.271
0.0537032	239.96
0.0540132	240.652
0.054325	241.346
0.0546387	242.041
0.0549541	242.739
0.0552713	243.439
0.0555904	244.14
0.0559114	244.844
0.0562341	245.55
0.0565588	246.258
0.0568853	246.967
0.0572137	247.679
0.057544	248.393
0.0578762	249.109
0.0582103	249.827
0.0585464	250.547
0.0588844	251.269
0.0592243	251.994
0.0595662	252.72
0.0599101	253.448
0.060256	254.179
0.0606038	254.912
0.0609537	255.646
0.0613056	256.383
0.0616595	257.122
0.0620155	257.863
0.0623735	258.607
0.0627336	259.352
0.0630957	260.1
0.06346	260.849
0.0638263	261.601
0.0641948	262.355
0.0645654	263.111
0.0649382	263.87
0.0653131	264.63
0.0656901	265.393
0.0660693	266.158
0.0664508	266.925
0.0668344	267.695
0.0672202	268.466
0.0676083	269.24
0.0679986	270.016
0.0683912	270.794
0.068786	271.575
0.0691831	272.358
0.0695825	273.143
0.0699842	273.93
0.0703882	274.72
0.0707946	275.511
0.0712033	276.306
0.0716143	277.102
0.0720278	277.901
0.0724436	278.702
0.0728618	279.505
0.0732825	280.311
0.0737055	281.119
0.074131	281.929
0.074559	282.741
0.0749894	283.556
0.0754223	284.374
0.0758578	285.193
0.0762957	286.015
0.0767361	286.84
0.0771792	287.667
0.0776247	288.496
0.0780728	289.327
0.0785236	290.161
0.0789769	290.998
0.0794328	291.836
0.0798914	292.678
0.0803526	293.521
0.0808165	294.367
0.0812831	295.216
0.0817523	296.067
0.0822243	296.92
0.082699	297.776
0.0831764	298.634
0.0836566	299.495
0.0841395	300.358
0.0846253	301.224
0.0851138	302.092
0.0856052	302.963
0.0860994	303.836
0.0865964	304.712
0.0870964	305.59
0.0875992	306.471
0.0881049	307.354
0.0886135	308.24
0.0891251	309.129
0.0896396	310.02
0.0901571	310.913
0.0906776	311.81
0.0912011	312.708
0.0917276	313.61
0.0922571	314.514
0.0927897	315.42
0.0933254	316.329
0.0938642	317.241
0.0944061	318.156
0.0949511	319.073
0.0954993	319.992
0.0960506	320.915
0.0966051	321.84
0.0971628	322.767
0.0977237	323.698
0.0982879	324.631
0.0988553	325.566
0.099426	326.505
0.1	327.446
0.100577	328.39
0.101158	329.336
0.101742	330.286
0.102329	331.238
0.10292	332.192
0.103514	333.15
0.104112	334.11
0.104713	335.073
0.105317	336.039
0.105925	337.007
0.106537	337.979
0.107152	338.953
0.107771	339.93
0.108393	340.91
0.109018	341.892
0.109648	342.878
0.110281	343.866
0.110917	344.857
0.111558	345.851
0.112202	346.848
0.11285	347.848
0.113501	348.851
0.114156	349.856
0.114815	350.865
0.115478	351.876
0.116145	352.89
0.116815	353.907
0.11749	354.927
0.118168	355.95
0.11885	356.976
0.119536	358.005
0.120226	359.037
0.120921	360.072
0.121619	361.11
0.122321	362.151
0.123027	363.195
0.123737	364.242
0.124451	365.291
0.12517	366.344
0.125893	367.4
0.126619	368.459
0.12735	369.521
0.128086	370.586
0.128825	371.655
0.129569	372.726
0.130317	373.8
0.131069	374.878
0.131826	375.958
0.132587	377.042
0.133352	378.129
0.134122	379.219
0.134896	380.312
0.135675	381.408
0.136458	382.507
0.137246	383.61
0.138038	384.715
0.138835	385.824
0.139637	386.936
0.140443	388.052
0.141254	389.17
0.142069	390.292
0.142889	391.417
0.143714	392.545
0.144544	393.677
0.145378	394.811
0.146218	395.949
0.147062	397.091
0.147911	398.235
0.148765	399.383
0.149624	400.534
0.150487	401.689
0.151356	402.846
0.15223	404.008
0.153109	405.172
0.153993	406.34
0.154882	407.511
0.155776	408.686
0.156675	409.864
0.15758	411.045
0.158489	412.23
0.159404	413.418
0.160325	414.61
0.16125	415.805
0.162181	417.003
0.163117	418.205
0.164059	419.411
0.165006	420.62
0.165959	421.832
0.166917	423.048
0.16788	424.267
0.16885	425.49
0.169824	426.717
0.170805	427.947
0.171791	429.18
0.172783	430.417
0.17378	431.658
0.174783	432.902
0.175792	434.15
0.176807	435.401
0.177828	436.656
0.178855	437.915
0.179887	439.177
0.180926	440.443
0.18197	441.712
0.183021	442.986
0.184077	444.262
0.18514	445.543
0.186209	446.827
0.187284	448.115
0.188365	449.407
0.189452	450.702
0.190546	452.001
0.191646	453.304
0.192752	454.611
0.193865	455.921
0.194984	457.235
0.19611	458.553
0.197242	459.875
0.198381	461.2
0.199526	462.53
0.200678	463.863
0.201837	465.2
0.203002	466.541
0.204174	467.885
0.205353	469.234
0.206538	470.587
0.20773	471.943
0.20893	473.303
0.210136	474.668
0.211349	476.036
0.212569	477.408
0.213796	478.784
0.21503	480.164
0.216272	481.548
0.21752	482.936
0.218776	484.328
0.220039	485.724
0.221309	487.124
0.222587	488.528
0.223872	489.936
0.225165	491.348
0.226464	492.765
0.227772	494.185
0.229087	495.609
0.230409	497.038
0.231739	498.471
0.233077	499.907
0.234423	501.348
0.235776	502.793
0.237137	504.243
0.238506	505.696
0.239883	507.154
0.241268	508.615
0.242661	510.081
0.244062	511.552
0.245471	513.026
0.246888	514.505
0.248313	515.988
0.249747	517.475
0.251189	518.967
0.252639	520.463
0.254097	521.963
0.255564	523.467
0.25704	524.976
0.258523	526.489
0.260016	528.007
0.261517	529.529
0.263027	531.055
0.264545	532.586
0.266073	534.121
0.267609	535.66
0.269153	537.204
0.270707	538.753
0.27227	540.306
0.273842	541.863
0.275423	543.425
0.277013	544.991
0.278612	546.562
0.280221	548.138
0.281838	549.717
0.283465	551.302
0.285102	552.891
0.286748	554.485
0.288403	556.083
0.290068	557.686
0.291743	559.293
0.293427	560.905
0.295121	562.522
0.296825	564.143
0.298538	565.77
0.300262	567.4
0.301995	569.036
0.303739	570.676
0.305492	572.321
0.307256	573.97
0.30903	575.625
0.310814	577.284
0.312608	578.948
0.314413	580.617
0.316228	582.29
0.318053	583.969
0.31989	585.652
0.321736	587.34
0.323594	589.033
0.325462	590.731
0.327341	592.433
0.32923	594.141
0.331131	595.854
0.333043	597.571
0.334965	599.293
0.336899	601.021
0.338844	602.753
0.3408	604.491
0.342768	606.233
0.344747	607.98
0.346737	609.733
0.348739	611.49
0.350752	613.253
0.352777	615.02
0.354813	616.793
0.356862	618.571
0.358922	620.354
0.360994	622.142
0.363078	623.935
0.365174	625.734
0.367282	627.537
0.369403	629.346
0.371535	631.16
0.37368	632.979
0.375837	634.804
0.378007	636.634
0.380189	638.469
0.382384	640.309
0.384592	642.155
0.386812	644.005
0.389045	645.862
0.391291	647.723
0.39355	649.59
0.395822	651.463
0.398107	653.34
0.400405	655.224
0.402717	657.112
0.405042	659.006
0.40738	660.906
0.409732	662.811
0.412098	664.721
0.414477	666.637
0.416869	668.559
0.419276	670.486
0.421697	672.418
0.424131	674.357
0.42658	676.3
0.429042	678.25
0.431519	680.205
0.43401	682.165
0.436516	684.131
0.439036	686.103
0.44157	688.081
0.44412	690.064
0.446684	692.053
0.449262	694.048
0.451856	696.049
0.454465	698.055
0.457088	700.067
0.459727	702.085
0.462381	704.108
0.46505	706.138
0.467735	708.173
0.470435	710.215
0.473151	712.262
0.475883	714.315
0.47863	716.374
0.481393	718.438
0.484172	720.509
0.486968	722.586
0.489779	724.669
0.492606	726.758
0.49545	728.852
0.49831	730.953
0.501187	733.06
0.504081	735.173
0.506991	737.292
0.509918	739.417
0.512861	741.548
0.515822	743.686
0.5188	745.829
0.521795	747.979
0.524807	750.135
0.527837	752.297
0.530884	754.466
0.533949	756.64
0.537032	758.821
0.540132	761.009
0.54325	763.202
0.546387	765.402
0.549541	767.608
0.552713	769.821
0.555904	772.04
0.559114	774.265
0.562341	776.497
0.565588	778.735
0.568853	780.979
0.572137	783.23
0.57544	785.488
0.578762	787.752
0.582103	790.023
0.585464	792.3
0.588844	794.584
0.592243	796.874
0.595662	799.171
0.599101	801.474
0.60256	803.784
0.606038	806.101
0.609537	808.425
0.613056	810.755
0.616595	813.092
0.620155	815.435
