Stopping power dEdx from Ionisation for pi+ Z = 0 in Water, process name: hIoni
E [MeV]	dEdx [MeV/mm]
0.001	44.5556
0.00100577	44.684
0.00101158	44.8128
0.00101742	44.942
0.00102329	45.0715
0.0010292	45.2014
0.00103514	45.3317
0.00104112	45.4624
0.00104713	45.5934
0.00105317	45.7248
0.00105925	45.8566
0.00106537	45.9888
0.00107152	46.1214
0.00107771	46.2543
0.00108393	46.3876
0.00109018	46.5213
0.00109648	46.6554
0.00110281	46.7899
0.00110917	46.9248
0.00111558	47.06
0.00112202	47.1957
0.0011285	47.3317
0.00113501	47.4681
0.00114156	47.605
0.00114815	47.7422
0.00115478	47.8798
0.00116145	48.0178
0.00116815	48.1562
0.0011749	48.295
0.00118168	48.4342
0.0011885	48.5738
0.00119536	48.7138
0.00120226	48.8542
0.00120921	48.9951
0.00121619	49.1363
0.00122321	49.2779
0.00123027	49.4199
0.00123737	49.5624
0.00124451	49.7052
0.0012517	49.8485
0.00125893	49.9922
0.00126619	50.1363
0.0012735	50.2808
0.00128086	50.4257
0.00128825	50.5711
0.00129569	50.7168
0.00130317	50.863
0.00131069	51.0096
0.00131826	51.1567
0.00132587	51.3041
0.00133352	51.452
0.00134122	51.6003
0.00134896	51.749
0.00135675	51.8982
0.00136458	52.0478
0.00137246	52.1978
0.00138038	52.3483
0.00138835	52.4991
0.00139637	52.6505
0.00140443	52.8022
0.00141254	52.9544
0.00142069	53.1071
0.00142889	53.2601
0.00143714	53.4137
0.00144544	53.5676
0.00145378	53.722
0.00146218	53.8769
0.00147062	54.0322
0.00147911	54.1879
0.00148765	54.3441
0.00149624	54.5007
0.00150487	54.64
0.00151356	54.7739
0.0015223	54.908
0.00153109	55.0423
0.00153993	55.1769
0.00154882	55.3117
0.00155776	55.4468
0.00156675	55.5822
0.0015758	55.7178
0.00158489	55.8537
0.00159404	55.9898
0.00160325	56.1262
0.0016125	56.2628
0.00162181	56.3996
0.00163117	56.5368
0.00164059	56.6741
0.00165006	56.8117
0.00165959	56.9496
0.00166917	57.0877
0.0016788	57.2261
0.0016885	57.3647
0.00169824	57.5035
0.00170805	57.6426
0.00171791	57.782
0.00172783	57.9216
0.0017378	58.0614
0.00174783	58.2015
0.00175792	58.3418
0.00176807	58.4823
0.00177828	58.6231
0.00178855	58.7642
0.00179887	58.9054
0.00180926	59.0469
0.0018197	59.1887
0.00183021	59.3307
0.00184077	59.4729
0.0018514	59.6153
0.00186209	59.758
0.00187284	59.9009
0.00188365	60.0441
0.00189452	60.1875
0.00190546	60.3311
0.00191646	60.4749
0.00192752	60.619
0.00193865	60.7633
0.00194984	60.9078
0.0019611	61.0525
0.00197242	61.1975
0.00198381	61.3427
0.00199526	61.4881
0.00200678	61.6337
0.00201837	61.7796
0.00203002	61.9256
0.00204174	62.0719
0.00205353	62.2184
0.00206538	62.3651
0.0020773	62.512
0.0020893	62.6592
0.00210136	62.8065
0.00211349	62.9541
0.00212569	63.1018
0.00213796	63.2498
0.0021503	63.398
0.00216272	63.5463
0.0021752	63.6949
0.00218776	63.8437
0.00220039	63.9927
0.00221309	64.1418
0.00222587	64.2912
0.00223872	64.4408
0.00225165	64.5905
0.00226464	64.7404
0.00227772	64.8906
0.00229087	65.0409
0.00230409	65.1914
0.00231739	65.3421
0.00233077	65.4929
0.00234423	65.644
0.00235776	65.7952
0.00237137	65.9466
0.00238506	66.0982
0.00239883	66.25
0.00241268	66.4019
0.00242661	66.554
0.00244062	66.7062
0.00245471	66.8586
0.00246888	67.0112
0.00248313	67.164
0.00249747	67.3169
0.00251189	67.4699
0.00252639	67.6231
0.00254097	67.7765
0.00255564	67.93
0.0025704	68.0837
0.00258523	68.2375
0.00260016	68.3914
0.00261517	68.5455
0.00263027	68.6997
0.00264545	68.8541
0.00266073	69.0086
0.00267609	69.1632
0.00269153	69.3179
0.00270707	69.4728
0.0027227	69.6278
0.00273842	69.7829
0.00275423	69.9381
0.00277013	70.0935
0.00278612	70.249
0.00280221	70.4045
0.00281838	70.5602
0.00283465	70.716
0.00285102	70.8719
0.00286748	71.0278
0.00288403	71.1839
0.00290068	71.3401
0.00291743	71.4963
0.00293427	71.6527
0.00295121	71.8091
0.00296825	71.9656
0.00298538	72.1221
0.00300262	72.2788
0.00301995	72.4355
0.00303739	72.5923
0.00305492	72.7491
0.00307256	72.906
0.0030903	73.063
0.00310814	73.22
0.00312608	73.3771
0.00314413	73.5342
0.00316228	73.6913
0.00318053	73.8485
0.0031989	74.0057
0.00321736	74.163
0.00323594	74.3203
0.00325462	74.4776
0.00327341	74.6349
0.0032923	74.7922
0.00331131	74.9496
0.00333043	75.1069
0.00334965	75.2643
0.00336899	75.4217
0.00338844	75.579
0.003408	75.7364
0.00342768	75.8937
0.00344747	76.051
0.00346737	76.2083
0.00348739	76.3656
0.00350752	76.5228
0.00352777	76.68
0.00354813	76.8372
0.00356862	76.9943
0.00358922	77.1514
0.00360994	77.3084
0.00363078	77.4654
0.00365174	77.6223
0.00367282	77.7791
0.00369403	77.9359
0.00371535	78.0926
0.0037368	78.2492
0.00375837	78.4057
0.00378007	78.5621
0.00380189	78.7184
0.00382384	78.8747
0.00384592	79.0308
0.00386812	79.1868
0.00389045	79.3427
0.00391291	79.4985
0.0039355	79.6541
0.00395822	79.8096
0.00398107	79.965
0.00400405	80.1202
0.00402717	80.2753
0.00405042	80.4302
0.0040738	80.585
0.00409732	80.7396
0.00412098	80.894
0.00414477	81.0482
0.00416869	81.2023
0.00419276	81.3562
0.00421697	81.5098
0.00424131	81.6633
0.0042658	81.8166
0.00429042	81.9696
0.00431519	82.1224
0.0043401	82.275
0.00436516	82.4274
0.00439036	82.5795
0.0044157	82.7314
0.0044412	82.8831
0.00446684	83.0344
0.00449262	83.1856
0.00451856	83.3364
0.00454465	83.4869
0.00457088	83.6372
0.00459727	83.7872
0.00462381	83.9369
0.0046505	84.0863
0.00467735	84.2353
0.00470435	84.3841
0.00473151	84.5325
0.00475883	84.6806
0.0047863	84.8283
0.00481393	84.9758
0.00484172	85.1228
0.00486968	85.2695
0.00489779	85.4158
0.00492606	85.5617
0.0049545	85.7073
0.0049831	85.8525
0.00501187	85.9972
0.00504081	86.1416
0.00506991	86.2855
0.00509918	86.429
0.00512861	86.5721
0.00515822	86.7148
0.005188	86.857
0.00521795	86.9988
0.00524807	87.1401
0.00527837	87.2809
0.00530884	87.4212
0.00533949	87.5611
0.00537032	87.7005
0.00540132	87.8393
0.0054325	87.9777
0.00546387	88.1156
0.00549541	88.2529
0.00552713	88.3897
0.00555904	88.5259
0.00559114	88.6616
0.00562341	88.7967
0.00565588	88.9313
0.00568853	89.0653
0.00572137	89.1987
0.0057544	89.3315
0.00578762	89.4637
0.00582103	89.5953
0.00585464	89.7262
0.00588844	89.8566
0.00592243	89.9863
0.00595662	90.1153
0.00599101	90.2437
0.0060256	90.3715
0.00606038	90.4985
0.00609537	90.6249
0.00613056	90.7506
0.00616595	90.8756
0.00620155	90.9998
0.00623735	91.1234
0.00627336	91.2462
0.00630957	91.3683
0.006346	91.4896
0.00638263	91.6102
0.00641948	91.73
0.00645654	91.8491
0.00649382	91.9673
0.00653131	92.0848
0.00656901	92.2014
0.00660693	92.3173
0.00664508	92.4323
0.00668344	92.5465
0.00672202	92.6598
0.00676083	92.7723
0.00679986	92.884
0.00683912	92.9947
0.0068786	93.1046
0.00691831	93.2136
0.00695825	93.3217
0.00699842	93.4289
0.00703882	93.5351
0.00707946	93.6404
0.00712033	93.7448
0.00716143	93.8483
0.00720278	93.9508
0.00724436	94.0523
0.00728618	94.1528
0.00732825	94.2523
0.00737055	94.3509
0.0074131	94.4484
0.0074559	94.545
0.00749894	94.6404
0.00754223	94.7349
0.00758578	94.8283
0.00762957	94.9207
0.00767361	95.0119
0.00771792	95.1022
0.00776247	95.1913
0.00780728	95.2793
0.00785236	95.3662
0.00789769	95.452
0.00794328	95.5367
0.00798914	95.6202
0.00803526	95.7026
0.00808165	95.7839
0.00812831	95.8639
0.00817523	95.9428
0.00822243	96.0205
0.0082699	96.0971
0.00831764	96.1724
0.00836566	96.2465
0.00841395	96.3194
0.00846253	96.391
0.00851138	96.4614
0.00856052	96.5306
0.00860994	96.5984
0.00865964	96.6651
0.00870964	96.7304
0.00875992	96.7944
0.00881049	96.8572
0.00886135	96.9186
0.00891251	96.9788
0.00896396	97.0376
0.00901571	97.095
0.00906776	97.1511
0.00912011	97.2059
0.00917276	97.2593
0.00922571	97.3113
0.00927897	97.362
0.00933254	97.4112
0.00938642	97.4591
0.00944061	97.5055
0.00949511	97.5506
0.00954993	97.5942
0.00960506	97.6364
0.00966051	97.6771
0.00971628	97.7164
0.00977237	97.7542
0.00982879	97.7906
0.00988553	97.8255
0.0099426	97.8589
0.01	97.8908
0.0100577	97.9212
0.0101158	97.9501
0.0101742	97.9775
0.0102329	98.0034
0.010292	98.0277
0.0103514	98.0505
0.0104112	98.0718
0.0104713	98.0915
0.0105317	98.1097
0.0105925	98.1263
0.0106537	98.1413
0.0107152	98.1547
0.0107771	98.1666
0.0108393	98.1768
0.0109018	98.1855
0.0109648	98.1925
0.0110281	98.198
0.0110917	98.2018
0.0111558	98.204
0.0112202	98.2046
0.011285	98.2035
0.0113501	98.2008
0.0114156	98.1964
0.0114815	98.1904
0.0115478	98.1827
0.0116145	98.1734
0.0116815	98.1624
0.011749	98.1497
0.0118168	98.1354
0.011885	98.1193
0.0119536	98.1016
0.0120226	98.0822
0.0120921	98.0611
0.0121619	98.0383
0.0122321	98.0138
0.0123027	97.9875
0.0123737	97.9596
0.0124451	97.93
0.012517	97.8986
0.0125893	97.8655
0.0126619	97.8307
0.012735	97.7941
0.0128086	97.7559
0.0128825	97.7159
0.0129569	97.6741
0.0130317	97.6307
0.0131069	97.5854
0.0131826	97.5385
0.0132587	97.4898
0.0133352	97.4393
0.0134122	97.3872
0.0134896	97.3332
0.0135675	97.2775
0.0136458	97.2201
0.0137246	97.1609
0.0138038	97.1
0.0138835	97.0373
0.0139637	96.9729
0.0140443	96.9067
0.0141254	96.8388
0.0142069	96.7691
0.0142889	96.6977
0.0143714	96.6245
0.0144544	96.5496
0.0145378	96.4729
0.0146218	96.3945
0.0147062	96.3143
0.0147911	96.2324
0.0148765	96.1488
0.0149624	96.0634
0.0150487	95.9763
0.0151356	95.8875
0.015223	95.7969
0.0153109	95.7046
0.0153993	95.6106
0.0154882	95.5149
0.0155776	95.4174
0.0156675	95.3183
0.015758	95.2174
0.0158489	95.1148
0.0159404	95.0105
0.0160325	94.9045
0.016125	94.7969
0.0162181	94.6875
0.0163117	94.5765
0.0164059	94.4638
0.0165006	94.3494
0.0165959	94.2334
0.0166917	94.1157
0.016788	93.9963
0.016885	93.8753
0.0169824	93.7527
0.0170805	93.6284
0.0171791	93.5025
0.0172783	93.375
0.017378	93.2458
0.0174783	93.1151
0.0175792	92.9828
0.0176807	92.8488
0.0177828	92.7133
0.0178855	92.5763
0.0179887	92.4376
0.0180926	92.2974
0.018197	92.1557
0.0183021	92.0124
0.0184077	91.8676
0.018514	91.7212
0.0186209	91.5734
0.0187284	91.4241
0.0188365	91.2732
0.0189452	91.1209
0.0190546	90.9671
0.0191646	90.8119
0.0192752	90.6552
0.0193865	90.497
0.0194984	90.3375
0.019611	90.1765
0.0197242	90.0141
0.0198381	89.8503
0.0199526	89.6851
0.0200678	89.5186
0.0201837	89.3507
0.0203002	89.1815
0.0204174	89.0109
0.0205353	88.839
0.0206538	88.6658
0.020773	88.4913
0.020893	88.3155
0.0210136	88.1384
0.0211349	87.9601
0.0212569	87.7805
0.0213796	87.5997
0.021503	87.4177
0.0216272	87.2344
0.021752	87.05
0.0218776	86.8644
0.0220039	86.6777
0.0221309	86.4897
0.0222587	86.3007
0.0223872	86.1105
0.0225165	85.9192
0.0226464	85.7269
0.0227772	85.5334
0.0229087	85.3389
0.0230409	85.1433
0.0231739	84.9467
0.0233077	84.7491
0.0234423	84.5505
0.0235776	84.3509
0.0237137	84.1503
0.0238506	83.9488
0.0239883	83.7463
0.0241268	83.5429
0.0242661	83.3385
0.0244062	83.1333
0.0245471	82.9272
0.0246888	82.7202
0.0248313	82.5124
0.0249747	82.3038
0.0251189	82.0943
0.0252639	81.884
0.0254097	81.673
0.0255564	81.4612
0.025704	81.2486
0.0258523	81.0353
0.0260016	80.8212
0.0261517	80.6065
0.0263027	80.391
0.0264545	80.1749
0.0266073	79.9582
0.0267609	79.7408
0.0269153	79.5227
0.0270707	79.3041
0.027227	79.0848
0.0273842	78.865
0.0275423	78.6446
0.0277013	78.4237
0.0278612	78.2023
0.0280221	77.9803
0.0281838	77.7578
0.0283465	77.5349
0.0285102	77.3115
0.0286748	77.0876
0.0288403	76.8634
0.0290068	76.6387
0.0291743	76.4135
0.0293427	76.1881
0.0295121	75.9622
0.0296825	75.736
0.0298538	75.5094
0.0300262	75.2825
0.0301995	75.0554
0.0303739	74.8279
0.0305492	74.6001
0.0307256	74.3721
0.030903	74.1438
0.0310814	73.9153
0.0312608	73.6866
0.0314413	73.4577
0.0316228	73.2286
0.0318053	72.9993
0.031989	72.7699
0.0321736	72.5403
0.0323594	72.3106
0.0325462	72.0808
0.0327341	71.8509
0.032923	71.6209
0.0331131	71.3908
0.0333043	71.1607
0.0334965	70.9305
0.0336899	70.7003
0.0338844	70.4701
0.03408	70.2399
0.0342768	70.0097
0.0344747	69.7795
0.0346737	69.5494
0.0348739	69.3193
0.0350752	69.0892
0.0352777	68.8593
0.0354813	68.6294
0.0356862	68.3996
0.0358922	68.17
0.0360994	67.9405
0.0363078	67.7111
0.0365174	67.4818
0.0367282	67.2528
0.0369403	67.0239
0.0371535	66.7951
0.037368	66.5666
0.0375837	66.3383
0.0378007	66.1102
0.0380189	65.8823
0.0382384	65.6547
0.0384592	65.4273
0.0386812	65.2002
0.0389045	64.9734
0.0391291	64.7468
0.039355	64.5206
0.0395822	64.2946
0.0398107	64.069
0.0400405	63.8436
0.0402717	63.6186
0.0405042	63.394
0.040738	63.1697
0.0409732	62.9457
0.0412098	62.7221
0.0414477	62.4989
0.0416869	62.2761
0.0419276	62.0537
0.0421697	61.8316
0.0424131	61.61
0.042658	61.3888
0.0429042	61.168
0.0431519	60.9477
0.043401	60.7278
0.0436516	60.5083
0.0439036	60.2893
0.044157	60.0707
0.044412	59.8527
0.0446684	59.6351
0.0449262	59.4179
0.0451856	59.2013
0.0454465	58.9852
0.0457088	58.7695
0.0459727	58.5544
0.0462381	58.3398
0.046505	58.1257
0.0467735	57.9121
0.0470435	57.699
0.0473151	57.4865
0.0475883	57.2745
0.047863	57.0631
0.0481393	56.8522
0.0484172	56.6418
0.0486968	56.432
0.0489779	56.2228
0.0492606	56.0142
0.049545	55.8061
0.049831	55.5985
0.0501187	55.3916
0.0504081	55.1852
0.0506991	54.9795
0.0509918	54.7743
0.0512861	54.5697
0.0515822	54.3657
0.05188	54.1623
0.0521795	53.9595
0.0524807	53.7573
0.0527837	53.5557
0.0530884	53.3547
0.0533949	53.1543
0.0537032	52.9546
0.0540132	52.7554
0.054325	52.5569
0.0546387	52.359
0.0549541	52.1617
0.0552713	51.9651
0.0555904	51.769
0.0559114	51.5736
0.0562341	51.3788
0.0565588	51.1847
0.0568853	50.9912
0.0572137	50.7983
0.057544	50.606
0.0578762	50.4144
0.0582103	50.2234
0.0585464	50.033
0.0588844	49.8433
0.0592243	49.6542
0.0595662	49.4658
0.0599101	49.278
0.060256	49.0908
0.0606038	48.9043
0.0609537	48.7184
0.0613056	48.5331
0.0616595	48.3485
0.0620155	48.1645
0.0623735	47.9812
0.0627336	47.7985
0.0630957	47.6164
0.06346	47.435
0.0638263	47.2542
0.0641948	47.074
0.0645654	46.8945
0.0649382	46.7156
0.0653131	46.5374
0.0656901	46.3598
0.0660693	46.1828
0.0664508	46.0064
0.0668344	45.8307
0.0672202	45.6556
0.0676083	45.4812
0.0679986	45.3073
0.0683912	45.1341
0.068786	44.9615
0.0691831	44.7896
0.0695825	44.6182
0.0699842	44.4475
0.0703882	44.2774
0.0707946	44.108
0.0712033	43.9391
0.0716143	43.7709
0.0720278	43.6033
0.0724436	43.4363
0.0728618	43.2699
0.0732825	43.1041
0.0737055	42.9389
0.074131	42.7743
0.074559	42.6104
0.0749894	42.447
0.0754223	42.2842
0.0758578	42.1221
0.0762957	41.9605
0.0767361	41.7996
0.0771792	41.6392
0.0776247	41.4794
0.0780728	41.3202
0.0785236	41.1616
0.0789769	41.0036
0.0794328	40.8461
0.0798914	40.6893
0.0803526	40.533
0.0808165	40.3773
0.0812831	40.2222
0.0817523	40.0677
0.0822243	39.9137
0.082699	39.7603
0.0831764	39.6075
0.0836566	39.4552
0.0841395	39.3035
0.0846253	39.1523
0.0851138	39.0018
0.0856052	38.8517
0.0860994	38.7022
0.0865964	38.5533
0.0870964	38.405
0.0875992	38.2571
0.0881049	38.1098
0.0886135	37.9631
0.0891251	37.8169
0.0896396	37.6713
0.0901571	37.5261
0.0906776	37.3816
0.0912011	37.2375
0.0917276	37.094
0.0922571	36.951
0.0927897	36.8085
0.0933254	36.6666
0.0938642	36.5252
0.0944061	36.3843
0.0949511	36.2439
0.0954993	36.104
0.0960506	35.9647
0.0966051	35.8258
0.0971628	35.6875
0.0977237	35.5496
0.0982879	35.4123
0.0988553	35.2755
0.099426	35.1391
0.1	35.0033
0.100577	34.868
0.101158	34.7331
0.101742	34.5988
0.102329	34.4649
0.10292	34.3315
0.103514	34.1986
0.104112	34.0662
0.104713	33.9343
0.105317	33.8028
0.105925	33.6719
0.106537	33.5414
0.107152	33.4113
0.107771	33.2818
0.108393	33.1527
0.109018	33.024
0.109648	32.8959
0.110281	32.7682
0.110917	32.6409
0.111558	32.5141
0.112202	32.3878
0.11285	32.2619
0.113501	32.1365
0.114156	32.0115
0.114815	31.887
0.115478	31.7629
0.116145	31.6393
0.116815	31.5161
0.11749	31.3933
0.118168	31.271
0.11885	31.1491
0.119536	31.0277
0.120226	30.9066
0.120921	30.786
0.121619	30.6659
0.122321	30.5462
0.123027	30.4269
0.123737	30.308
0.124451	30.1895
0.12517	30.0715
0.125893	29.9539
0.126619	29.8366
0.12735	29.7199
0.128086	29.6035
0.128825	29.4875
0.129569	29.372
0.130317	29.2568
0.131069	29.1421
0.131826	29.0277
0.132587	28.9138
0.133352	28.8003
0.134122	28.6871
0.134896	28.5744
0.135675	28.462
0.136458	28.3501
0.137246	28.2385
0.138038	28.1274
0.138835	28.0166
0.139637	27.9062
0.140443	27.7962
0.141254	27.6866
0.142069	27.5774
0.142889	27.4686
0.143714	27.3601
0.144544	27.252
0.145378	27.1443
0.146218	27.037
0.147062	26.9301
0.147911	26.8235
0.148765	26.7173
0.149624	26.6114
0.150487	26.506
0.151356	26.4009
0.15223	26.2962
0.153109	26.1918
0.153993	26.0878
0.154882	25.9842
0.155776	25.8809
0.156675	25.778
0.15758	25.6754
0.158489	25.5732
0.159404	25.4714
0.160325	25.3699
0.16125	25.2688
0.162181	25.168
0.163117	25.0676
0.164059	24.9675
0.165006	24.8678
0.165959	24.7684
0.166917	24.6694
0.16788	24.5707
0.16885	24.4724
0.169824	24.3744
0.170805	24.2767
0.171791	24.1794
0.172783	24.0824
0.17378	23.9858
0.174783	23.8895
0.175792	23.7935
0.176807	23.6979
0.177828	23.6026
0.178855	23.5076
0.179887	23.413
0.180926	23.3187
0.18197	23.2247
0.183021	23.1311
0.184077	23.0378
0.18514	22.9448
0.186209	22.8521
0.187284	22.7598
0.188365	22.6678
0.189452	22.5761
0.190546	22.4847
0.191646	22.3937
0.192752	22.3029
0.193865	22.2125
0.194984	22.1224
0.19611	22.0326
0.197242	21.9432
0.198381	21.854
0.199526	21.7652
0.200678	21.6766
0.201837	21.5884
0.203002	21.5005
0.204174	21.4129
0.205353	21.3256
0.206538	21.2387
0.20773	21.152
0.20893	21.0656
0.210136	20.9795
0.211349	20.8938
0.212569	20.8083
0.213796	20.7232
0.21503	20.6383
0.216272	20.5538
0.21752	20.4695
0.218776	20.3855
0.220039	20.3019
0.221309	20.2185
0.222587	20.1354
0.223872	20.0527
0.225165	19.9702
0.226464	19.888
0.227772	19.8061
0.229087	19.7245
0.230409	19.6432
0.231739	19.5622
0.233077	19.4814
0.234423	19.401
0.235776	19.3208
0.237137	19.2409
0.238506	19.1613
0.239883	19.082
0.241268	19.003
0.242661	18.9243
0.244062	18.8458
0.245471	18.7677
0.246888	18.6898
0.248313	18.6121
0.249747	18.5348
0.251189	18.4577
0.252639	18.381
0.254097	18.3045
0.255564	18.2282
0.25704	18.1523
0.258523	18.0766
0.260016	18.0012
0.261517	17.9261
0.263027	17.8512
0.264545	17.7766
0.266073	17.7023
0.267609	17.6282
0.269153	17.5544
0.270707	17.4809
0.27227	17.4077
0.273842	17.3347
0.275423	17.262
0.277013	17.1895
0.278612	17.1173
0.280221	17.0454
0.281838	16.9737
0.283465	16.9023
0.285102	16.8312
0.286748	16.7603
0.288403	16.6897
0.290068	16.6194
0.291743	16.5492
0.293427	16.4794
0.295121	16.4098
0.296825	16.3405
0.298538	16.2699
0.300262	16.1986
0.301995	16.1275
0.303739	16.0568
0.305492	15.9863
0.307256	15.9162
0.30903	15.8463
0.310814	15.7781
0.312608	15.7089
0.314413	15.6399
0.316228	15.5712
0.318053	15.5028
0.31989	15.4346
0.321736	15.3668
0.323594	15.2992
0.325462	15.2319
0.327341	15.1649
0.32923	15.0982
0.331131	15.0317
0.333043	14.9685
0.334965	14.9026
0.336899	14.8369
0.338844	14.7715
0.3408	14.7064
0.342768	14.6416
0.344747	14.5771
0.346737	14.5128
0.348739	14.4487
0.350752	14.385
0.352777	14.3215
0.354813	14.2583
0.356862	14.1953
0.358922	14.1326
0.360994	14.0702
0.363078	14.008
0.365174	13.9461
0.367282	13.8844
0.369403	13.823
0.371535	13.7618
0.37368	13.6605
0.375837	13.5993
0.378007	13.542
0.380189	13.4813
0.382384	13.4208
0.384592	13.3606
0.386812	13.3007
0.389045	13.241
0.391291	13.1815
0.39355	13.1223
0.395822	13.0634
0.398107	13.0047
0.400405	12.9462
0.402717	12.888
0.405042	12.8301
0.40738	12.7724
0.409732	12.7149
0.412098	12.6577
0.414477	12.6007
0.416869	12.5439
0.419276	12.4874
0.421697	12.4311
0.424131	12.3751
0.42658	12.3193
0.429042	12.2637
0.431519	12.2084
0.43401	12.1533
0.436516	12.0984
0.439036	12.0438
0.44157	11.9894
0.44412	11.9464
0.446684	11.8923
0.449262	11.8386
0.451856	11.785
0.454465	11.7317
0.457088	11.6786
0.459727	11.6257
0.462381	11.5731
0.46505	11.5207
0.467735	11.4684
0.470435	11.4165
0.473151	11.3647
0.475883	11.3132
0.47863	11.2618
0.481393	11.2107
0.484172	11.1598
0.486968	11.1092
0.489779	11.0587
0.492606	11.0085
0.49545	10.9584
0.49831	10.9086
0.501187	10.859
0.504081	10.8096
0.506991	10.7604
0.509918	10.7114
0.512861	10.6627
0.515822	10.6141
0.5188	10.5658
0.521795	10.5176
0.524807	10.4708
0.527837	10.4247
0.530884	10.3787
0.533949	10.3329
0.537032	10.2873
0.540132	10.2419
0.54325	10.1966
0.546387	10.1516
0.549541	10.1067
0.552713	10.0619
0.555904	10.0174
0.559114	9.973
0.562341	9.9288
0.565588	9.88477
0.568853	9.84092
0.572137	9.79723
0.57544	9.75372
0.578762	9.71039
0.582103	9.66722
0.585464	9.62423
0.588844	9.58141
0.592243	9.53876
0.595662	9.49627
0.599101	9.45396
0.60256	9.41182
0.606038	9.36985
0.609537	9.32805
0.613056	9.28641
