Stopping power dEdx from Ionisation for proton Z = 1 in Water, process name: hIoni
E [MeV]	dEdx [MeV/mm]
0.001	17.1844
0.00100577	17.2339
0.00101158	17.2836
0.00101742	17.3334
0.00102329	17.3834
0.0010292	17.4335
0.00103514	17.4837
0.00104112	17.5341
0.00104713	17.5847
0.00105317	17.6353
0.00105925	17.6862
0.00106537	17.7372
0.00107152	17.7883
0.00107771	17.8396
0.00108393	17.891
0.00109018	17.9425
0.00109648	17.9943
0.00110281	18.0461
0.00110917	18.0981
0.00111558	18.1503
0.00112202	18.2026
0.0011285	18.2551
0.00113501	18.3077
0.00114156	18.3605
0.00114815	18.4134
0.00115478	18.4665
0.00116145	18.5197
0.00116815	18.5731
0.0011749	18.6266
0.00118168	18.6803
0.0011885	18.7342
0.00119536	18.7882
0.00120226	18.8423
0.00120921	18.8966
0.00121619	18.9511
0.00122321	19.0057
0.00123027	19.0605
0.00123737	19.1154
0.00124451	19.1705
0.0012517	19.2258
0.00125893	19.2812
0.00126619	19.3368
0.0012735	19.3925
0.00128086	19.4484
0.00128825	19.5045
0.00129569	19.5607
0.00130317	19.6171
0.00131069	19.6736
0.00131826	19.7303
0.00132587	19.7872
0.00133352	19.8442
0.00134122	19.9014
0.00134896	19.9588
0.00135675	20.0163
0.00136458	20.074
0.00137246	20.1319
0.00138038	20.1899
0.00138835	20.2481
0.00139637	20.3065
0.00140443	20.365
0.00141254	20.4237
0.00142069	20.4826
0.00142889	20.5416
0.00143714	20.6008
0.00144544	20.6602
0.00145378	20.7197
0.00146218	20.7795
0.00147062	20.8393
0.00147911	20.8994
0.00148765	20.9597
0.00149624	21.0201
0.00150487	21.0807
0.00151356	21.1414
0.0015223	21.2024
0.00153109	21.2635
0.00153993	21.3248
0.00154882	21.3862
0.00155776	21.4479
0.00156675	21.5097
0.0015758	21.5717
0.00158489	21.6339
0.00159404	21.6962
0.00160325	21.7588
0.0016125	21.8215
0.00162181	21.8844
0.00163117	21.9475
0.00164059	22.0107
0.00165006	22.0742
0.00165959	22.1378
0.00166917	22.2016
0.0016788	22.2656
0.0016885	22.3298
0.00169824	22.3941
0.00170805	22.4587
0.00171791	22.5234
0.00172783	22.5883
0.0017378	22.6534
0.00174783	22.7187
0.00175792	22.7842
0.00176807	22.8499
0.00177828	22.9157
0.00178855	22.9818
0.00179887	23.048
0.00180926	23.1145
0.0018197	23.1811
0.00183021	23.2479
0.00184077	23.3149
0.0018514	23.3821
0.00186209	23.4495
0.00187284	23.5171
0.00188365	23.5849
0.00189452	23.6529
0.00190546	23.7211
0.00191646	23.7894
0.00192752	23.858
0.00193865	23.9268
0.00194984	23.9957
0.0019611	24.0649
0.00197242	24.1343
0.00198381	24.2038
0.00199526	24.2736
0.00200678	24.3436
0.00201837	24.4137
0.00203002	24.4841
0.00204174	24.5547
0.00205353	24.6254
0.00206538	24.6964
0.0020773	24.7676
0.0020893	24.839
0.00210136	24.9106
0.00211349	24.9824
0.00212569	25.0544
0.00213796	25.1266
0.0021503	25.199
0.00216272	25.2717
0.0021752	25.3445
0.00218776	25.4176
0.00220039	25.4908
0.00221309	25.5643
0.00222587	25.638
0.00223872	25.7119
0.00225165	25.786
0.00226464	25.8603
0.00227772	25.9349
0.00229087	26.0096
0.00230409	26.0846
0.00231739	26.1598
0.00233077	26.2352
0.00234423	26.3108
0.00235776	26.3866
0.00237137	26.4627
0.00238506	26.539
0.00239883	26.6155
0.00241268	26.6922
0.00242661	26.7691
0.00244062	26.8463
0.00245471	26.9237
0.00246888	27.0013
0.00248313	27.0791
0.00249747	27.1571
0.00251189	27.2354
0.00252639	27.3139
0.00254097	27.3927
0.00255564	27.4716
0.0025704	27.5508
0.00258523	27.6302
0.00260016	27.7098
0.00261517	27.7897
0.00263027	27.8698
0.00264545	27.9501
0.00266073	28.0307
0.00267609	28.1115
0.00269153	28.1925
0.00270707	28.2738
0.0027227	28.3553
0.00273842	28.437
0.00275423	28.519
0.00277013	28.6012
0.00278612	28.6836
0.00280221	28.7663
0.00281838	28.8492
0.00283465	28.9324
0.00285102	29.0158
0.00286748	29.0994
0.00288403	29.1833
0.00290068	29.2674
0.00291743	29.3518
0.00293427	29.4364
0.00295121	29.5212
0.00296825	29.6063
0.00298538	29.6916
0.00300262	29.7772
0.00301995	29.863
0.00303739	29.9491
0.00305492	30.0354
0.00307256	30.122
0.0030903	30.2088
0.00310814	30.2959
0.00312608	30.3832
0.00314413	30.4708
0.00316228	30.5586
0.00318053	30.6467
0.0031989	30.7351
0.00321736	30.8237
0.00323594	30.9125
0.00325462	31.0016
0.00327341	31.091
0.0032923	31.1806
0.00331131	31.2704
0.00333043	31.3606
0.00334965	31.451
0.00336899	31.5416
0.00338844	31.6325
0.003408	31.7237
0.00342768	31.8152
0.00344747	31.9069
0.00346737	31.9988
0.00348739	32.0911
0.00350752	32.1836
0.00352777	32.2763
0.00354813	32.3694
0.00356862	32.4627
0.00358922	32.5562
0.00360994	32.6501
0.00363078	32.7442
0.00365174	32.8386
0.00367282	32.9332
0.00369403	33.0281
0.00371535	33.1233
0.0037368	33.2188
0.00375837	33.3146
0.00378007	33.4106
0.00380189	33.5069
0.00382384	33.6035
0.00384592	33.7003
0.00386812	33.7975
0.00389045	33.8949
0.00391291	33.9926
0.0039355	34.0906
0.00395822	34.1888
0.00398107	34.2874
0.00400405	34.3862
0.00402717	34.4853
0.00405042	34.5847
0.0040738	34.6844
0.00409732	34.7844
0.00412098	34.8846
0.00414477	34.9852
0.00416869	35.086
0.00419276	35.1871
0.00421697	35.2886
0.00424131	35.3903
0.0042658	35.4923
0.00429042	35.5946
0.00431519	35.6972
0.0043401	35.8001
0.00436516	35.9033
0.00439036	36.0068
0.0044157	36.1105
0.0044412	36.2146
0.00446684	36.319
0.00449262	36.4237
0.00451856	36.5287
0.00454465	36.634
0.00457088	36.7396
0.00459727	36.8455
0.00462381	36.9517
0.0046505	37.0582
0.00467735	37.165
0.00470435	37.2721
0.00473151	37.3796
0.00475883	37.4873
0.0047863	37.5953
0.00481393	37.7037
0.00484172	37.8124
0.00486968	37.9214
0.00489779	38.0307
0.00492606	38.1403
0.0049545	38.2502
0.0049831	38.3605
0.00501187	38.4711
0.00504081	38.5819
0.00506991	38.6931
0.00509918	38.8047
0.00512861	38.9165
0.00515822	39.0287
0.005188	39.1412
0.00521795	39.254
0.00524807	39.3672
0.00527837	39.4806
0.00530884	39.5944
0.00533949	39.7086
0.00537032	39.823
0.00540132	39.9378
0.0054325	40.0529
0.00546387	40.1684
0.00549541	40.2841
0.00552713	40.4003
0.00555904	40.5167
0.00559114	40.6335
0.00562341	40.7506
0.00565588	40.8681
0.00568853	40.9859
0.00572137	41.104
0.0057544	41.2225
0.00578762	41.3413
0.00582103	41.4605
0.00585464	41.58
0.00588844	41.6998
0.00592243	41.82
0.00595662	41.9405
0.00599101	42.0614
0.0060256	42.1827
0.00606038	42.3043
0.00609537	42.4262
0.00613056	42.5485
0.00616595	42.6711
0.00620155	42.7941
0.00623735	42.9175
0.00627336	43.0412
0.00630957	43.1652
0.006346	43.2897
0.00638263	43.4144
0.00641948	43.5396
0.00645654	43.6651
0.00649382	43.7909
0.00653131	43.9171
0.00656901	44.0437
0.00660693	44.1707
0.00664508	44.298
0.00668344	44.4257
0.00672202	44.5537
0.00676083	44.6822
0.00679986	44.8109
0.00683912	44.9401
0.0068786	45.0696
0.00691831	45.1995
0.00695825	45.3298
0.00699842	45.4605
0.00703882	45.5915
0.00707946	45.7229
0.00712033	45.8547
0.00716143	45.9869
0.00720278	46.1194
0.00724436	46.2524
0.00728618	46.3857
0.00732825	46.5194
0.00737055	46.6535
0.0074131	46.788
0.0074559	46.9228
0.00749894	47.0581
0.00754223	47.1937
0.00758578	47.3297
0.00762957	47.4662
0.00767361	47.603
0.00771792	47.7402
0.00776247	47.8778
0.00780728	48.0158
0.00785236	48.1542
0.00789769	48.293
0.00794328	48.4322
0.00798914	48.5718
0.00803526	48.7118
0.00808165	48.8522
0.00812831	48.993
0.00817523	49.1342
0.00822243	49.2758
0.0082699	49.4179
0.00831764	49.5603
0.00836566	49.7032
0.00841395	49.8464
0.00846253	49.9901
0.00851138	50.1342
0.00856052	50.2787
0.00860994	50.4236
0.00865964	50.569
0.00870964	50.7147
0.00875992	50.8609
0.00881049	51.0075
0.00886135	51.1545
0.00891251	51.302
0.00896396	51.4498
0.00901571	51.5981
0.00906776	51.7469
0.00912011	51.896
0.00917276	52.0456
0.00922571	52.1956
0.00927897	52.3461
0.00933254	52.497
0.00938642	52.6483
0.00944061	52.8
0.00949511	52.9522
0.00954993	53.1048
0.00960506	53.2579
0.00966051	53.4114
0.00971628	53.5654
0.00977237	53.7198
0.00982879	53.8746
0.00988553	54.0299
0.0099426	54.1856
0.01	54.3418
0.0100577	54.4984
0.0101158	54.6381
0.0101742	54.7719
0.0102329	54.906
0.010292	55.0403
0.0103514	55.1749
0.0104112	55.3098
0.0104713	55.4449
0.0105317	55.5802
0.0105925	55.7158
0.0106537	55.8517
0.0107152	55.9878
0.0107771	56.1242
0.0108393	56.2608
0.0109018	56.3977
0.0109648	56.5348
0.0110281	56.6721
0.0110917	56.8097
0.0111558	56.9476
0.0112202	57.0857
0.011285	57.2241
0.0113501	57.3627
0.0114156	57.5015
0.0114815	57.6406
0.0115478	57.7799
0.0116145	57.9195
0.0116815	58.0594
0.011749	58.1994
0.0118168	58.3397
0.011885	58.4803
0.0119536	58.6211
0.0120226	58.7621
0.0120921	58.9034
0.0121619	59.0449
0.0122321	59.1866
0.0123027	59.3286
0.0123737	59.4708
0.0124451	59.6133
0.012517	59.7559
0.0125893	59.8988
0.0126619	60.042
0.012735	60.1854
0.0128086	60.329
0.0128825	60.4728
0.0129569	60.6169
0.0130317	60.7612
0.0131069	60.9057
0.0131826	61.0504
0.0132587	61.1954
0.0133352	61.3406
0.0134122	61.486
0.0134896	61.6316
0.0135675	61.7774
0.0136458	61.9235
0.0137246	62.0698
0.0138038	62.2163
0.0138835	62.363
0.0139637	62.5099
0.0140443	62.657
0.0141254	62.8044
0.0142069	62.9519
0.0142889	63.0997
0.0143714	63.2476
0.0144544	63.3958
0.0145378	63.5442
0.0146218	63.6928
0.0147062	63.8415
0.0147911	63.9905
0.0148765	64.1397
0.0149624	64.289
0.0150487	64.4386
0.0151356	64.5883
0.015223	64.7383
0.0153109	64.8884
0.0153993	65.0387
0.0154882	65.1892
0.0155776	65.3399
0.0156675	65.4908
0.015758	65.6418
0.0158489	65.793
0.0159404	65.9444
0.0160325	66.096
0.016125	66.2477
0.0162181	66.3997
0.0163117	66.5517
0.0164059	66.704
0.0165006	66.8564
0.0165959	67.009
0.0166917	67.1617
0.016788	67.3146
0.016885	67.4677
0.0169824	67.6209
0.0170805	67.7742
0.0171791	67.9278
0.0172783	68.0814
0.017378	68.2352
0.0174783	68.3892
0.0175792	68.5432
0.0176807	68.6975
0.0177828	68.8518
0.0178855	69.0063
0.0179887	69.1609
0.0180926	69.3157
0.018197	69.4705
0.0183021	69.6255
0.0184077	69.7807
0.018514	69.9359
0.0186209	70.0912
0.0187284	70.2467
0.0188365	70.4023
0.0189452	70.5579
0.0190546	70.7137
0.0191646	70.8696
0.0192752	71.0256
0.0193865	71.1816
0.0194984	71.3378
0.019611	71.494
0.0197242	71.6504
0.0198381	71.8068
0.0199526	71.9633
0.0200678	72.1199
0.0201837	72.2765
0.0203002	72.4332
0.0204174	72.59
0.0205353	72.7469
0.0206538	72.9038
0.020773	73.0607
0.020893	73.2177
0.0210136	73.3748
0.0211349	73.5319
0.0212569	73.689
0.0213796	73.8462
0.021503	74.0035
0.0216272	74.1607
0.021752	74.318
0.0218776	74.4753
0.0220039	74.6326
0.0221309	74.79
0.0222587	74.9473
0.0223872	75.1047
0.0225165	75.262
0.0226464	75.4194
0.0227772	75.5767
0.0229087	75.7341
0.0230409	75.8914
0.0231739	76.0487
0.0233077	76.206
0.0234423	76.3633
0.0235776	76.5205
0.0237137	76.6777
0.0238506	76.8349
0.0239883	76.992
0.0241268	77.1491
0.0242661	77.3061
0.0244062	77.4631
0.0245471	77.62
0.0246888	77.7768
0.0248313	77.9336
0.0249747	78.0903
0.0251189	78.2469
0.0252639	78.4034
0.0254097	78.5598
0.0255564	78.7162
0.025704	78.8724
0.0258523	79.0285
0.0260016	79.1845
0.0261517	79.3404
0.0263027	79.4962
0.0264545	79.6518
0.0266073	79.8074
0.0267609	79.9627
0.0269153	80.118
0.0270707	80.273
0.027227	80.428
0.0273842	80.5827
0.0275423	80.7373
0.0277013	80.8917
0.0278612	81.046
0.0280221	81.2001
0.0281838	81.3539
0.0283465	81.5076
0.0285102	81.6611
0.0286748	81.8143
0.0288403	81.9674
0.0290068	82.1202
0.0291743	82.2728
0.0293427	82.4252
0.0295121	82.5773
0.0296825	82.7292
0.0298538	82.8809
0.0300262	83.0322
0.0301995	83.1834
0.0303739	83.3342
0.0305492	83.4848
0.0307256	83.635
0.030903	83.785
0.0310814	83.9347
0.0312608	84.0841
0.0314413	84.2332
0.0316228	84.3819
0.0318053	84.5304
0.031989	84.6784
0.0321736	84.8262
0.0323594	84.9736
0.0325462	85.1207
0.0327341	85.2674
0.032923	85.4137
0.0331131	85.5596
0.0333043	85.7052
0.0334965	85.8503
0.0336899	85.9951
0.0338844	86.1395
0.03408	86.2834
0.0342768	86.427
0.0344747	86.5701
0.0346737	86.7127
0.0348739	86.8549
0.0350752	86.9967
0.0352777	87.138
0.0354813	87.2788
0.0356862	87.4192
0.0358922	87.5591
0.0360994	87.6985
0.0363078	87.8373
0.0365174	87.9757
0.0367282	88.1135
0.0369403	88.2509
0.0371535	88.3877
0.037368	88.5239
0.0375837	88.6596
0.0378007	88.7947
0.0380189	88.9293
0.0382384	89.0633
0.0384592	89.1967
0.0386812	89.3295
0.0389045	89.4617
0.0391291	89.5933
0.039355	89.7243
0.0395822	89.8547
0.0398107	89.9844
0.0400405	90.1134
0.0402717	90.2419
0.0405042	90.3696
0.040738	90.4967
0.0409732	90.6231
0.0412098	90.7488
0.0414477	90.8737
0.0416869	90.998
0.0419276	91.1216
0.0421697	91.2444
0.0424131	91.3665
0.042658	91.4879
0.0429042	91.6085
0.0431519	91.7283
0.043401	91.8473
0.0436516	91.9656
0.0439036	92.0831
0.044157	92.1998
0.044412	92.3156
0.0446684	92.4306
0.0449262	92.5448
0.0451856	92.6582
0.0454465	92.7707
0.0457088	92.8823
0.0459727	92.9931
0.0462381	93.103
0.046505	93.212
0.0467735	93.3201
0.0470435	93.4273
0.0473151	93.5336
0.0475883	93.6389
0.047863	93.7433
0.0481393	93.8468
0.0484172	93.9493
0.0486968	94.0508
0.0489779	94.1513
0.0492606	94.2509
0.049545	94.3495
0.049831	94.447
0.0501187	94.5436
0.0504081	94.6391
0.0506991	94.7335
0.0509918	94.827
0.0512861	94.9193
0.0515822	95.0106
0.05188	95.1009
0.0521795	95.19
0.0524807	95.278
0.0527837	95.365
0.0530884	95.4508
0.0533949	95.5355
0.0537032	95.619
0.0540132	95.7014
0.054325	95.7827
0.0546387	95.8628
0.0549541	95.9417
0.0552713	96.0194
0.0555904	96.096
0.0559114	96.1713
0.0562341	96.2454
0.0565588	96.3183
0.0568853	96.39
0.0572137	96.4604
0.057544	96.5296
0.0578762	96.5975
0.0582103	96.6641
0.0585464	96.7295
0.0588844	96.7935
0.0592243	96.8563
0.0595662	96.9178
0.0599101	96.9779
0.060256	97.0367
0.0606038	97.0942
0.0609537	97.1503
0.0613056	97.2051
0.0616595	97.2585
0.0620155	97.3106
0.0623735	97.3612
0.0627336	97.4105
0.0630957	97.4584
0.06346	97.5049
0.0638263	97.5499
0.0641948	97.5936
0.0645654	97.6358
0.0649382	97.6765
0.0653131	97.7158
0.0656901	97.7537
0.0660693	97.7901
0.0664508	97.825
0.0668344	97.8584
0.0672202	97.8903
0.0676083	97.9208
0.0679986	97.9497
0.0683912	97.9771
0.068786	98.003
0.0691831	98.0274
0.0695825	98.0502
0.0699842	98.0715
0.0703882	98.0912
0.0707946	98.1094
0.0712033	98.126
0.0716143	98.1411
0.0720278	98.1545
0.0724436	98.1664
0.0728618	98.1767
0.0732825	98.1854
0.0737055	98.1924
0.074131	98.1979
0.074559	98.2018
0.0749894	98.204
0.0754223	98.2046
0.0758578	98.2035
0.0762957	98.2008
0.0767361	98.1965
0.0771792	98.1905
0.0776247	98.1829
0.0780728	98.1736
0.0785236	98.1626
0.0789769	98.1499
0.0794328	98.1356
0.0798914	98.1196
0.0803526	98.1019
0.0808165	98.0825
0.0812831	98.0614
0.0817523	98.0386
0.0822243	98.0141
0.082699	97.9879
0.0831764	97.96
0.0836566	97.9304
0.0841395	97.8991
0.0846253	97.866
0.0851138	97.8312
0.0856052	97.7947
0.0860994	97.7564
0.0865964	97.7165
0.0870964	97.6748
0.0875992	97.6313
0.0881049	97.5861
0.0886135	97.5392
0.0891251	97.4905
0.0896396	97.4401
0.0901571	97.3879
0.0906776	97.334
0.0912011	97.2784
0.0917276	97.221
0.0922571	97.1618
0.0927897	97.1009
0.0933254	97.0382
0.0938642	96.9738
0.0944061	96.9077
0.0949511	96.8398
0.0954993	96.7701
0.0960506	96.6987
0.0966051	96.6256
0.0971628	96.5507
0.0977237	96.474
0.0982879	96.3956
0.0988553	96.3155
0.099426	96.2336
0.1	96.15
0.100577	96.0647
0.101158	95.9776
0.101742	95.8888
0.102329	95.7982
0.10292	95.706
0.103514	95.612
0.104112	95.5163
0.104713	95.4188
0.105317	95.3197
0.105925	95.2189
0.106537	95.1163
0.107152	95.0121
0.107771	94.9061
0.108393	94.7985
0.109018	94.6891
0.109648	94.5781
0.110281	94.4654
0.110917	94.3511
0.111558	94.2351
0.112202	94.1174
0.11285	93.9981
0.113501	93.8771
0.114156	93.7545
0.114815	93.6302
0.115478	93.5043
0.116145	93.3768
0.116815	93.2477
0.11749	93.117
0.118168	92.9847
0.11885	92.8508
0.119536	92.7153
0.120226	92.5783
0.120921	92.4396
0.121619	92.2995
0.122321	92.1577
0.123027	92.0145
0.123737	91.8697
0.124451	91.7234
0.12517	91.5756
0.125893	91.4262
0.126619	91.2754
0.12735	91.1231
0.128086	90.9694
0.128825	90.8141
0.129569	90.6575
0.130317	90.4993
0.131069	90.3398
0.131826	90.1788
0.132587	90.0165
0.133352	89.8527
0.134122	89.6876
0.134896	89.521
0.135675	89.3532
0.136458	89.1839
0.137246	89.0134
0.138038	88.8415
0.138835	88.6683
0.139637	88.4938
0.140443	88.318
0.141254	88.141
0.142069	87.9627
0.142889	87.7831
0.143714	87.6023
0.144544	87.4203
0.145378	87.2371
0.146218	87.0527
0.147062	86.8671
0.147911	86.6804
0.148765	86.4925
0.149624	86.3034
0.150487	86.1133
0.151356	85.922
0.15223	85.7297
0.153109	85.5362
0.153993	85.3417
0.154882	85.1462
0.155776	84.9496
0.156675	84.752
0.15758	84.5534
0.158489	84.3538
0.159404	84.1532
0.160325	83.9517
0.16125	83.7492
0.162181	83.5458
0.163117	83.3415
0.164059	83.1363
0.165006	82.9302
0.165959	82.7233
0.166917	82.5155
0.16788	82.3068
0.16885	82.0974
0.169824	81.8871
0.170805	81.6761
0.171791	81.4642
0.172783	81.2517
0.17378	81.0384
0.174783	80.8243
0.175792	80.6096
0.176807	80.3942
0.177828	80.1781
0.178855	79.9613
0.179887	79.7439
0.180926	79.5259
0.18197	79.3073
0.183021	79.088
0.184077	78.8682
0.18514	78.6479
0.186209	78.4269
0.187284	78.2055
0.188365	77.9835
0.189452	77.7611
0.190546	77.5382
0.191646	77.3148
0.192752	77.0909
0.193865	76.8666
0.194984	76.6419
0.19611	76.4168
0.197242	76.1913
0.198381	75.9655
0.199526	75.7393
0.200678	75.5127
0.201837	75.2858
0.203002	75.0587
0.204174	74.8312
0.205353	74.6034
0.206538	74.3754
0.20773	74.1472
0.20893	73.9187
0.210136	73.69
0.211349	73.461
0.212569	73.2319
0.213796	73.0027
0.21503	72.7732
0.216272	72.5437
0.21752	72.314
0.218776	72.0842
0.220039	71.8542
0.221309	71.6242
0.222587	71.3942
0.223872	71.1641
0.225165	70.9339
0.226464	70.7037
0.227772	70.4735
0.229087	70.2432
0.230409	70.013
0.231739	69.7829
0.233077	69.5527
0.234423	69.3226
0.235776	69.0926
0.237137	68.8626
0.238506	68.6328
0.239883	68.403
0.241268	68.1733
0.242661	67.9438
0.244062	67.7144
0.245471	67.4852
0.246888	67.2561
0.248313	67.0272
0.249747	66.7985
0.251189	66.5699
0.252639	66.3416
0.254097	66.1135
0.255564	65.8857
0.25704	65.658
0.258523	65.4307
0.260016	65.2035
0.261517	64.9767
0.263027	64.7501
0.264545	64.5239
0.266073	64.2979
0.267609	64.0722
0.269153	63.8469
0.270707	63.6219
0.27227	63.3972
0.273842	63.1729
0.275423	62.949
0.277013	62.7254
0.278612	62.5022
0.280221	62.2793
0.281838	62.0569
0.283465	61.8348
0.285102	61.6132
0.286748	61.392
0.288403	61.1712
0.290068	60.9509
0.291743	60.731
0.293427	60.5115
0.295121	60.2925
0.296825	60.0739
0.298538	59.8558
0.300262	59.6382
0.301995	59.4211
0.303739	59.2045
0.305492	58.9883
0.307256	58.7727
0.30903	58.5575
0.310814	58.3429
0.312608	58.1288
0.314413	57.9152
0.316228	57.7021
0.318053	57.4896
0.31989	57.2776
0.321736	57.0661
0.323594	56.8552
0.325462	56.6449
0.327341	56.4351
0.32923	56.2258
0.331131	56.0172
0.333043	55.8091
0.334965	55.6016
0.336899	55.3946
0.338844	55.1882
0.3408	54.9825
0.342768	54.7773
0.344747	54.5727
0.346737	54.3687
0.348739	54.1653
0.350752	53.9624
0.352777	53.7602
0.354813	53.5586
0.356862	53.3576
0.358922	53.1573
0.360994	52.9575
0.363078	52.7583
0.365174	52.5598
0.367282	52.3619
0.369403	52.1646
0.371535	51.9679
0.37368	51.7719
0.375837	51.5765
0.378007	51.3817
0.380189	51.1875
0.382384	50.994
0.384592	50.8011
0.386812	50.6088
0.389045	50.4172
0.391291	50.2262
0.39355	50.0358
0.395822	49.8461
0.398107	49.657
0.400405	49.4685
0.402717	49.2807
0.405042	49.0935
0.40738	48.907
0.409732	48.7211
0.412098	48.5358
0.414477	48.3512
0.416869	48.1672
0.419276	47.9838
0.421697	47.8011
0.424131	47.619
0.42658	47.4376
0.429042	47.2568
0.431519	47.0766
0.43401	46.8971
0.436516	46.7182
0.439036	46.54
0.44157	46.3623
0.44412	46.1853
0.446684	46.009
0.449262	45.8333
0.451856	45.6582
0.454465	45.4837
0.457088	45.3098
0.459727	45.1366
0.462381	44.964
0.46505	44.7921
0.467735	44.6207
0.470435	44.45
0.473151	44.2799
0.475883	44.1104
0.47863	43.9416
0.481393	43.7733
0.484172	43.6057
0.486968	43.4387
0.489779	43.2723
0.492606	43.1065
0.49545	42.9413
0.49831	42.7767
0.501187	42.6127
0.504081	42.4494
0.506991	42.2866
0.509918	42.1244
0.512861	41.9629
0.515822	41.8019
0.5188	41.6415
0.521795	41.4817
0.524807	41.3225
0.527837	41.1639
0.530884	41.0059
0.533949	40.8484
0.537032	40.6916
0.540132	40.5353
0.54325	40.3796
0.546387	40.2245
0.549541	40.0699
0.552713	39.9159
0.555904	39.7625
0.559114	39.6097
0.562341	39.4574
0.565588	39.3057
0.568853	39.1545
0.572137	39.0039
0.57544	38.8539
0.578762	38.7044
0.582103	38.5555
0.585464	38.4071
0.588844	38.2593
0.592243	38.112
0.595662	37.9652
0.599101	37.819
0.60256	37.6734
0.606038	37.5283
0.609537	37.3837
0.613056	37.2396
