Stopping power dEdx from Ionisation for S32[0.0] Z = 16 in G4_Si, process name: ionIoni
E [MeV]	dEdx [MeV/mm]
0.001	33.0145
0.00100577	33.1105
0.00101158	33.2067
0.00101742	33.3032
0.00102329	33.4
0.0010292	33.4971
0.00103514	33.5944
0.00104112	33.6921
0.00104713	33.79
0.00105317	33.8882
0.00105925	33.9867
0.00106537	34.0854
0.00107152	34.1845
0.00107771	34.2838
0.00108393	34.3834
0.00109018	34.4833
0.00109648	34.5835
0.00110281	34.684
0.00110917	34.7848
0.00111558	34.8858
0.00112202	34.9872
0.0011285	35.0888
0.00113501	35.1908
0.00114156	35.293
0.00114815	35.3955
0.00115478	35.4983
0.00116145	35.6015
0.00116815	35.7049
0.0011749	35.8086
0.00118168	35.9126
0.0011885	36.0169
0.00119536	36.1215
0.00120226	36.2264
0.00120921	36.3317
0.00121619	36.4372
0.00122321	36.543
0.00123027	36.6491
0.00123737	36.7556
0.00124451	36.8623
0.0012517	36.9694
0.00125893	37.0767
0.00126619	37.1844
0.0012735	37.2924
0.00128086	37.4007
0.00128825	37.5093
0.00129569	37.6182
0.00130317	37.7274
0.00131069	37.8369
0.00131826	37.9468
0.00132587	38.057
0.00133352	38.1675
0.00134122	38.2783
0.00134896	38.3894
0.00135675	38.5009
0.00136458	38.6126
0.00137246	38.7247
0.00138038	38.8371
0.00138835	38.9499
0.00139637	39.063
0.00140443	39.1764
0.00141254	39.2901
0.00142069	39.4041
0.00142889	39.5185
0.00143714	39.6332
0.00144544	39.7482
0.00145378	39.8636
0.00146218	39.9793
0.00147062	40.0953
0.00147911	40.2117
0.00148765	40.3284
0.00149624	40.4455
0.00150487	40.5628
0.00151356	40.6805
0.0015223	40.7986
0.00153109	40.917
0.00153993	41.0357
0.00154882	41.1548
0.00155776	41.2742
0.00156675	41.394
0.0015758	41.5141
0.00158489	41.6346
0.00159404	41.7554
0.00160325	41.8765
0.0016125	41.998
0.00162181	42.1199
0.00163117	42.2421
0.00164059	42.3646
0.00165006	42.4876
0.00165959	42.6108
0.00166917	42.7344
0.0016788	42.8584
0.0016885	42.9827
0.00169824	43.1074
0.00170805	43.2325
0.00171791	43.3579
0.00172783	43.4837
0.0017378	43.6098
0.00174783	43.7363
0.00175792	43.8632
0.00176807	43.9904
0.00177828	44.118
0.00178855	44.246
0.00179887	44.3743
0.00180926	44.503
0.0018197	44.6321
0.00183021	44.7615
0.00184077	44.8913
0.0018514	45.0215
0.00186209	45.1521
0.00187284	45.283
0.00188365	45.4144
0.00189452	45.5461
0.00190546	45.6781
0.00191646	45.8106
0.00192752	45.9434
0.00193865	46.0767
0.00194984	46.2103
0.0019611	46.3443
0.00197242	46.4786
0.00198381	46.6134
0.00199526	46.7486
0.00200678	46.8841
0.00201837	47.02
0.00203002	47.1564
0.00204174	47.2931
0.00205353	47.4302
0.00206538	47.5677
0.0020773	47.7056
0.0020893	47.8439
0.00210136	47.9826
0.00211349	48.1217
0.00212569	48.2612
0.00213796	48.4012
0.0021503	48.5415
0.00216272	48.6822
0.0021752	48.8233
0.00218776	48.9648
0.00220039	49.1068
0.00221309	49.2491
0.00222587	49.3918
0.00223872	49.535
0.00225165	49.6786
0.00226464	49.8226
0.00227772	49.967
0.00229087	50.1118
0.00230409	50.257
0.00231739	50.4027
0.00233077	50.5488
0.00234423	50.6953
0.00235776	50.8422
0.00237137	50.9896
0.00238506	51.1373
0.00239883	51.2855
0.00241268	51.4341
0.00242661	51.5832
0.00244062	51.7327
0.00245471	51.8826
0.00246888	52.0329
0.00248313	52.1837
0.00249747	52.3349
0.00251189	52.4866
0.00252639	52.6386
0.00254097	52.7912
0.00255564	52.9441
0.0025704	53.0975
0.00258523	53.2514
0.00260016	53.4057
0.00261517	53.5604
0.00263027	53.7156
0.00264545	53.8712
0.00266073	54.0273
0.00267609	54.1838
0.00269153	54.3408
0.00270707	54.4982
0.0027227	54.6561
0.00273842	54.8144
0.00275423	54.9732
0.00277013	55.1325
0.00278612	55.2922
0.00280221	55.4524
0.00281838	55.613
0.00283465	55.7741
0.00285102	55.9357
0.00286748	56.0977
0.00288403	56.2602
0.00290068	56.4231
0.00291743	56.5866
0.00293427	56.7505
0.00295121	56.9149
0.00296825	57.0797
0.00298538	57.245
0.00300262	57.4108
0.00301995	57.5771
0.00303739	57.7439
0.00305492	57.9111
0.00307256	58.0788
0.0030903	58.247
0.00310814	58.4157
0.00312608	58.5849
0.00314413	58.7546
0.00316228	58.9247
0.00318053	59.0953
0.0031989	59.2665
0.00321736	59.4381
0.00323594	59.6102
0.00325462	59.7828
0.00327341	59.956
0.0032923	60.1296
0.00331131	60.3037
0.00333043	60.4783
0.00334965	60.6534
0.00336899	60.8291
0.00338844	61.0052
0.003408	61.1818
0.00342768	61.359
0.00344747	61.5366
0.00346737	61.7148
0.00348739	61.8935
0.00350752	62.0727
0.00352777	62.2524
0.00354813	62.4326
0.00356862	62.6134
0.00358922	62.7947
0.00360994	62.9765
0.00363078	63.1588
0.00365174	63.3416
0.00367282	63.525
0.00369403	63.7089
0.00371535	63.8933
0.0037368	64.0783
0.00375837	64.2638
0.00378007	64.4498
0.00380189	64.6364
0.00382384	64.8235
0.00384592	65.0111
0.00386812	65.1993
0.00389045	65.388
0.00391291	65.5773
0.0039355	65.7671
0.00395822	65.9575
0.00398107	66.1484
0.00400405	66.3399
0.00402717	66.5319
0.00405042	66.7245
0.0040738	66.9176
0.00409732	67.1113
0.00412098	67.3055
0.00414477	67.5003
0.00416869	67.6957
0.00419276	67.8916
0.00421697	68.0881
0.00424131	68.2851
0.0042658	68.4828
0.00429042	68.6809
0.00431519	68.8797
0.0043401	69.079
0.00436516	69.279
0.00439036	69.4794
0.0044157	69.6805
0.0044412	69.8821
0.00446684	70.0844
0.00449262	70.2872
0.00451856	70.4906
0.00454465	70.6946
0.00457088	70.8991
0.00459727	71.1043
0.00462381	71.31
0.0046505	71.5164
0.00467735	71.7233
0.00470435	71.9308
0.00473151	72.139
0.00475883	72.3477
0.0047863	72.557
0.00481393	72.767
0.00484172	72.9775
0.00486968	73.1886
0.00489779	73.4004
0.00492606	73.6128
0.0049545	73.8258
0.0049831	74.0393
0.00501187	74.2536
0.00504081	74.4684
0.00506991	74.6838
0.00509918	74.8999
0.00512861	75.1166
0.00515822	75.3339
0.005188	75.5518
0.00521795	75.7704
0.00524807	75.9896
0.00527837	76.2094
0.00530884	76.4299
0.00533949	76.651
0.00537032	76.8727
0.00540132	77.0951
0.0054325	77.3181
0.00546387	77.5418
0.00549541	77.7661
0.00552713	77.991
0.00555904	78.2166
0.00559114	78.4429
0.00562341	78.6698
0.00565588	78.8973
0.00568853	79.1255
0.00572137	79.3544
0.0057544	79.5839
0.00578762	79.8141
0.00582103	80.045
0.00585464	80.2765
0.00588844	80.5087
0.00592243	80.7415
0.00595662	80.9751
0.00599101	81.2093
0.0060256	81.4441
0.00606038	81.6797
0.00609537	81.9159
0.00613056	82.1528
0.00616595	82.3904
0.00620155	82.6287
0.00623735	82.8677
0.00627336	83.1073
0.00630957	83.3477
0.006346	83.5887
0.00638263	83.8304
0.00641948	84.0729
0.00645654	84.316
0.00649382	84.5598
0.00653131	84.8044
0.00656901	85.0496
0.00660693	85.2955
0.00664508	85.5422
0.00668344	85.7895
0.00672202	86.0376
0.00676083	86.2864
0.00679986	86.5359
0.00683912	86.7862
0.0068786	87.0371
0.00691831	87.2888
0.00695825	87.5412
0.00699842	87.7943
0.00703882	88.0482
0.00707946	88.3027
0.00712033	88.5581
0.00716143	88.8141
0.00720278	89.0709
0.00724436	89.3284
0.00728618	89.5867
0.00732825	89.8457
0.00737055	90.1055
0.0074131	90.366
0.0074559	90.6273
0.00749894	90.8893
0.00754223	91.1521
0.00758578	91.4156
0.00762957	91.6799
0.00767361	91.945
0.00771792	92.2108
0.00776247	92.4774
0.00780728	92.7447
0.00785236	93.0129
0.00789769	93.2818
0.00794328	93.5514
0.00798914	93.8219
0.00803526	94.0931
0.00808165	94.3651
0.00812831	94.6379
0.00817523	94.9115
0.00822243	95.1859
0.0082699	95.461
0.00831764	95.737
0.00836566	96.0137
0.00841395	96.2913
0.00846253	96.5696
0.00851138	96.8488
0.00856052	97.1287
0.00860994	97.4095
0.00865964	97.691
0.00870964	97.9734
0.00875992	98.2566
0.00881049	98.5406
0.00886135	98.8255
0.00891251	99.1111
0.00896396	99.3976
0.00901571	99.6849
0.00906776	99.973
0.00912011	100.262
0.00917276	100.552
0.00922571	100.842
0.00927897	101.134
0.00933254	101.426
0.00938642	101.719
0.00944061	102.013
0.00949511	102.308
0.00954993	102.604
0.00960506	102.9
0.00966051	103.198
0.00971628	103.496
0.00977237	103.795
0.00982879	104.095
0.00988553	104.396
0.0099426	104.698
0.01	105
0.0100577	105.304
0.0101158	105.608
0.0101742	105.913
0.0102329	106.219
0.010292	106.526
0.0103514	106.834
0.0104112	107.143
0.0104713	107.452
0.0105317	107.763
0.0105925	108.074
0.0106537	108.387
0.0107152	108.7
0.0107771	109.014
0.0108393	109.329
0.0109018	109.645
0.0109648	109.962
0.0110281	110.28
0.0110917	110.875
0.0111558	111.195
0.0112202	111.515
0.011285	111.837
0.0113501	112.159
0.0114156	112.482
0.0114815	112.807
0.0115478	113.132
0.0116145	113.458
0.0116815	113.785
0.011749	114.113
0.0118168	114.442
0.011885	114.772
0.0119536	115.103
0.0120226	115.434
0.0120921	115.767
0.0121619	116.101
0.0122321	116.435
0.0123027	116.771
0.0123737	117.108
0.0124451	117.445
0.012517	117.784
0.0125893	118.123
0.0126619	118.464
0.012735	118.805
0.0128086	119.147
0.0128825	119.491
0.0129569	119.835
0.0130317	120.181
0.0131069	120.527
0.0131826	120.875
0.0132587	121.223
0.0133352	121.572
0.0134122	121.923
0.0134896	122.274
0.0135675	122.627
0.0136458	122.98
0.0137246	123.335
0.0138038	123.69
0.0138835	124.047
0.0139637	124.404
0.0140443	124.763
0.0141254	125.122
0.0142069	125.483
0.0142889	125.845
0.0143714	126.207
0.0144544	126.571
0.0145378	126.936
0.0146218	127.302
0.0147062	127.669
0.0147911	128.037
0.0148765	128.406
0.0149624	128.776
0.0150487	129.147
0.0151356	129.519
0.015223	129.893
0.0153109	130.267
0.0153993	130.643
0.0154882	131.019
0.0155776	131.397
0.0156675	131.776
0.015758	132.155
0.0158489	132.536
0.0159404	132.918
0.0160325	133.301
0.016125	133.686
0.0162181	134.071
0.0163117	134.457
0.0164059	134.845
0.0165006	135.234
0.0165959	135.623
0.0166917	136.014
0.016788	136.406
0.016885	136.8
0.0169824	137.194
0.0170805	137.589
0.0171791	137.986
0.0172783	138.384
0.017378	138.783
0.0174783	139.183
0.0175792	139.584
0.0176807	139.986
0.0177828	140.39
0.0178855	140.794
0.0179887	141.2
0.0180926	141.607
0.018197	142.015
0.0183021	142.425
0.0184077	142.835
0.018514	143.247
0.0186209	143.66
0.0187284	144.074
0.0188365	144.489
0.0189452	144.905
0.0190546	145.323
0.0191646	145.742
0.0192752	146.162
0.0193865	146.583
0.0194984	147.006
0.019611	147.43
0.0197242	147.855
0.0198381	148.281
0.0199526	148.708
0.0200678	149.137
0.0201837	149.567
0.0203002	149.998
0.0204174	150.43
0.0205353	150.864
0.0206538	151.299
0.020773	151.735
0.020893	152.172
0.0210136	152.611
0.0211349	153.051
0.0212569	153.492
0.0213796	153.934
0.021503	154.378
0.0216272	154.823
0.021752	155.269
0.0218776	155.717
0.0220039	156.165
0.0221309	156.616
0.0222587	157.067
0.0223872	157.52
0.0225165	157.974
0.0226464	158.429
0.0227772	158.886
0.0229087	159.344
0.0230409	159.803
0.0231739	160.264
0.0233077	160.726
0.0234423	161.189
0.0235776	161.653
0.0237137	162.119
0.0238506	162.587
0.0239883	163.055
0.0241268	163.525
0.0242661	163.997
0.0244062	164.469
0.0245471	164.943
0.0246888	165.419
0.0248313	165.896
0.0249747	166.374
0.0251189	166.853
0.0252639	167.334
0.0254097	167.817
0.0255564	168.3
0.025704	168.785
0.0258523	169.272
0.0260016	169.76
0.0261517	170.249
0.0263027	170.74
0.0264545	171.232
0.0266073	171.726
0.0267609	172.22
0.0269153	172.717
0.0270707	173.215
0.027227	173.714
0.0273842	174.215
0.0275423	174.717
0.0277013	175.22
0.0278612	175.726
0.0280221	176.232
0.0281838	176.74
0.0283465	177.249
0.0285102	177.76
0.0286748	178.273
0.0288403	178.787
0.0290068	179.302
0.0291743	179.819
0.0293427	180.337
0.0295121	180.857
0.0296825	181.378
0.0298538	181.901
0.0300262	182.425
0.0301995	182.951
0.0303739	183.478
0.0305492	184.007
0.0307256	184.538
0.030903	185.069
0.0310814	185.603
0.0312608	186.138
0.0314413	186.674
0.0316228	187.212
0.0318053	187.752
0.031989	188.293
0.0321736	188.836
0.0323594	189.38
0.0325462	189.926
0.0327341	190.474
0.032923	191.023
0.0331131	191.573
0.0333043	192.125
0.0334965	192.679
0.0336899	193.235
0.0338844	193.792
0.03408	194.35
0.0342768	194.91
0.0344747	195.472
0.0346737	196.036
0.0348739	196.601
0.0350752	197.167
0.0352777	197.736
0.0354813	198.306
0.0356862	198.877
0.0358922	199.45
0.0360994	200.025
0.0363078	200.602
0.0365174	201.18
0.0367282	201.76
0.0369403	202.341
0.0371535	202.925
0.037368	203.51
0.0375837	204.096
0.0378007	204.684
0.0380189	205.274
0.0382384	205.866
0.0384592	206.459
0.0386812	207.055
0.0389045	207.651
0.0391291	208.25
0.039355	208.85
0.0395822	209.452
0.0398107	210.056
0.0400405	210.661
0.0402717	211.269
0.0405042	211.877
0.040738	212.488
0.0409732	213.101
0.0412098	213.715
0.0414477	214.331
0.0416869	214.949
0.0419276	215.568
0.0421697	216.19
0.0424131	216.813
0.042658	217.438
0.0429042	218.064
0.0431519	218.693
0.043401	219.323
0.0436516	219.955
0.0439036	220.589
0.044157	221.225
0.044412	221.863
0.0446684	222.502
0.0449262	223.144
0.0451856	223.787
0.0454465	224.432
0.0457088	225.079
0.0459727	225.728
0.0462381	226.378
0.046505	227.031
0.0467735	227.685
0.0470435	228.341
0.0473151	229
0.0475883	229.66
0.047863	230.322
0.0481393	230.986
0.0484172	231.651
0.0486968	232.319
0.0489779	232.989
0.0492606	233.66
0.049545	234.334
0.049831	235.009
0.0501187	235.687
0.0504081	236.366
0.0506991	237.047
0.0509918	237.73
0.0512861	238.416
0.0515822	239.103
0.05188	239.792
0.0521795	240.483
0.0524807	241.176
0.0527837	241.872
0.0530884	242.569
0.0533949	243.268
0.0537032	243.969
0.0540132	244.672
0.054325	245.378
0.0546387	246.085
0.0549541	246.794
0.0552713	247.505
0.0555904	248.219
0.0559114	248.934
0.0562341	249.652
0.0565588	250.371
0.0568853	251.093
0.0572137	251.817
0.057544	252.543
0.0578762	253.271
0.0582103	254.001
0.0585464	254.733
0.0588844	255.467
0.0592243	256.203
0.0595662	256.942
0.0599101	257.682
0.060256	258.425
0.0606038	259.17
0.0609537	259.917
0.0613056	260.666
0.0616595	261.418
0.0620155	262.171
0.0623735	262.927
0.0627336	263.685
0.0630957	264.445
0.06346	265.207
0.0638263	265.971
0.0641948	266.738
0.0645654	267.507
0.0649382	268.278
0.0653131	269.051
0.0656901	269.827
0.0660693	270.604
0.0664508	271.384
0.0668344	272.167
0.0672202	272.951
0.0676083	273.738
0.0679986	274.527
0.0683912	275.318
0.068786	276.112
0.0691831	276.908
0.0695825	277.706
0.0699842	278.506
0.0703882	279.309
0.0707946	280.114
0.0712033	280.921
0.0716143	281.731
0.0720278	282.543
0.0724436	283.358
0.0728618	284.174
0.0732825	284.993
0.0737055	285.815
0.074131	286.639
0.074559	287.465
0.0749894	288.293
0.0754223	289.124
0.0758578	289.958
0.0762957	290.794
0.0767361	291.632
0.0771792	292.472
0.0776247	293.315
0.0780728	294.161
0.0785236	295.009
0.0789769	295.859
0.0794328	296.712
0.0798914	297.567
0.0803526	298.425
0.0808165	299.285
0.0812831	300.148
0.0817523	301.013
0.0822243	301.88
0.082699	302.75
0.0831764	303.623
0.0836566	304.498
0.0841395	305.376
0.0846253	306.256
0.0851138	307.139
0.0856052	308.024
0.0860994	308.912
0.0865964	309.802
0.0870964	310.695
0.0875992	311.591
0.0881049	312.489
0.0886135	313.39
0.0891251	314.293
0.0896396	315.199
0.0901571	316.108
0.0906776	317.019
0.0912011	317.932
0.0917276	318.849
0.0922571	319.768
0.0927897	320.69
0.0933254	321.614
0.0938642	322.541
0.0944061	323.471
0.0949511	324.403
0.0954993	325.338
0.0960506	326.276
0.0966051	327.216
0.0971628	328.159
0.0977237	329.105
0.0982879	330.054
0.0988553	331.005
0.099426	331.959
0.1	332.916
0.100577	333.876
0.101158	334.838
0.101742	335.803
0.102329	336.771
0.10292	337.742
0.103514	338.715
0.104112	339.692
0.104713	340.671
0.105317	341.653
0.105925	342.637
0.106537	343.625
0.107152	344.616
0.107771	345.609
0.108393	346.605
0.109018	347.604
0.109648	348.606
0.110281	349.611
0.110917	350.618
0.111558	351.629
0.112202	352.643
0.11285	353.659
0.113501	354.678
0.114156	355.701
0.114815	356.726
0.115478	357.754
0.116145	358.785
0.116815	359.82
0.11749	360.857
0.118168	361.897
0.11885	362.94
0.119536	363.986
0.120226	365.035
0.120921	366.087
0.121619	367.143
0.122321	368.201
0.123027	369.262
0.123737	370.327
0.124451	371.394
0.12517	372.464
0.125893	373.538
0.126619	374.615
0.12735	375.694
0.128086	376.777
0.128825	377.863
0.129569	378.953
0.130317	380.045
0.131069	381.14
0.131826	382.239
0.132587	383.341
0.133352	384.446
0.134122	385.554
0.134896	386.665
0.135675	387.779
0.136458	388.897
0.137246	390.018
0.138038	391.142
0.138835	392.27
0.139637	393.4
0.140443	394.534
0.141254	395.672
0.142069	396.812
0.142889	397.956
0.143714	399.103
0.144544	400.253
0.145378	401.407
0.146218	402.564
0.147062	403.724
0.147911	404.888
0.148765	406.055
0.149624	407.225
0.150487	408.399
0.151356	409.576
0.15223	410.757
0.153109	411.941
0.153993	413.128
0.154882	414.319
0.155776	415.513
0.156675	416.711
0.15758	417.912
0.158489	419.117
0.159404	420.325
0.160325	421.536
0.16125	422.751
0.162181	423.97
0.163117	425.192
0.164059	426.417
0.165006	427.646
0.165959	428.879
0.166917	430.115
0.16788	431.355
0.16885	432.598
0.169824	433.845
0.170805	435.096
0.171791	436.35
0.172783	437.608
0.17378	438.869
0.174783	440.134
0.175792	441.403
0.176807	442.675
0.177828	443.951
0.178855	445.23
0.179887	446.514
0.180926	447.801
0.18197	449.091
0.183021	450.386
0.184077	451.684
0.18514	452.986
0.186209	454.292
0.187284	455.601
0.188365	456.914
0.189452	458.231
0.190546	459.552
0.191646	460.877
0.192752	462.205
0.193865	463.537
0.194984	464.874
0.19611	466.213
0.197242	467.557
0.198381	468.905
0.199526	470.257
0.200678	471.612
0.201837	472.971
0.203002	474.335
0.204174	475.702
0.205353	477.073
0.206538	478.448
0.20773	479.827
0.20893	481.21
0.210136	482.597
0.211349	483.988
0.212569	485.383
0.213796	486.782
0.21503	488.185
0.216272	489.593
0.21752	491.004
0.218776	492.419
0.220039	493.838
0.221309	495.262
0.222587	496.689
0.223872	498.121
0.225165	499.557
0.226464	500.997
0.227772	502.441
0.229087	503.889
0.230409	505.341
0.231739	506.798
0.233077	508.259
0.234423	509.724
0.235776	511.193
0.237137	512.666
0.238506	514.144
0.239883	515.626
0.241268	517.112
0.242661	518.603
0.244062	520.098
0.245471	521.597
0.246888	523.1
0.248313	524.608
0.249747	526.12
0.251189	527.636
0.252639	529.157
0.254097	530.683
0.255564	532.212
0.25704	533.746
0.258523	535.285
0.260016	536.828
0.261517	538.375
0.263027	539.927
0.264545	541.483
0.266073	543.044
0.267609	544.609
0.269153	546.179
0.270707	547.753
0.27227	549.332
0.273842	550.915
0.275423	552.503
0.277013	554.096
0.278612	555.693
0.280221	557.295
0.281838	558.901
0.283465	560.512
0.285102	562.127
0.286748	563.748
0.288403	565.373
0.290068	567.002
0.291743	568.637
0.293427	570.276
0.295121	571.919
0.296825	573.568
0.298538	575.221
0.300262	576.879
0.301995	578.542
0.303739	580.209
0.305492	581.882
0.307256	583.559
0.30903	585.241
0.310814	586.928
0.312608	588.62
0.314413	590.316
0.316228	592.018
0.318053	593.724
0.31989	595.436
0.321736	597.152
0.323594	598.873
0.325462	600.599
0.327341	602.33
0.32923	604.067
0.331131	605.808
0.333043	607.554
0.334965	609.305
0.336899	611.061
0.338844	612.823
0.3408	614.589
0.342768	616.361
0.344747	618.137
0.346737	619.919
0.348739	621.706
0.350752	623.498
0.352777	625.295
0.354813	627.097
0.356862	628.905
0.358922	630.717
0.360994	632.535
0.363078	634.359
0.365174	636.187
0.367282	638.021
0.369403	639.86
0.371535	641.704
0.37368	643.554
0.375837	645.409
0.378007	647.269
0.380189	649.135
0.382384	651.006
0.384592	652.882
0.386812	654.764
0.389045	656.651
0.391291	658.544
0.39355	660.442
0.395822	662.346
0.398107	664.255
0.400405	666.17
0.402717	668.09
0.405042	670.015
0.40738	671.947
0.409732	673.883
0.412098	675.826
0.414477	677.774
0.416869	679.727
0.419276	681.687
0.421697	683.652
0.424131	685.622
0.42658	687.598
0.429042	689.58
0.431519	691.568
0.43401	693.561
0.436516	695.56
0.439036	697.565
0.44157	699.576
0.44412	701.592
0.446684	703.615
0.449262	705.643
0.451856	707.677
0.454465	709.716
0.457088	711.762
0.459727	713.814
0.462381	715.871
0.46505	717.934
0.467735	720.004
0.470435	722.079
0.473151	724.16
0.475883	726.248
0.47863	728.341
0.481393	730.44
0.484172	732.546
0.486968	734.657
0.489779	736.775
0.492606	738.899
0.49545	741.028
0.49831	743.164
0.501187	745.306
0.504081	747.455
0.506991	749.609
0.509918	751.77
0.512861	753.937
0.515822	756.11
0.5188	758.289
0.521795	760.475
0.524807	762.667
0.527837	764.865
0.530884	767.07
0.533949	769.281
0.537032	771.498
0.540132	773.722
0.54325	775.952
0.546387	778.189
0.549541	780.432
0.552713	782.681
0.555904	784.937
0.559114	787.2
0.562341	789.469
0.565588	791.744
0.568853	794.026
0.572137	796.315
0.57544	798.61
0.578762	800.912
0.582103	803.221
0.585464	805.536
0.588844	807.858
0.592243	810.186
0.595662	812.521
0.599101	814.863
0.60256	817.212
0.606038	819.568
0.609537	821.93
