Stopping power dEdx from Ionisation for Sc45[0.0] Z = 21 in G4_TISSUE_SOFT_ICRP, process name: ionIoni
E [MeV]	dEdx [MeV/mm]
0.001	64.6805
0.00100577	64.867
0.00101158	65.0539
0.00101742	65.2415
0.00102329	65.4295
0.0010292	65.6181
0.00103514	65.8072
0.00104112	65.9969
0.00104713	66.1871
0.00105317	66.3779
0.00105925	66.5692
0.00106537	66.7611
0.00107152	66.9536
0.00107771	67.1465
0.00108393	67.3401
0.00109018	67.5342
0.00109648	67.7288
0.00110281	67.9241
0.00110917	68.1198
0.00111558	68.3162
0.00112202	68.5131
0.0011285	68.7106
0.00113501	68.9086
0.00114156	69.1073
0.00114815	69.3064
0.00115478	69.5062
0.00116145	69.7066
0.00116815	69.9075
0.0011749	70.109
0.00118168	70.3111
0.0011885	70.5137
0.00119536	70.717
0.00120226	70.9208
0.00120921	71.1252
0.00121619	71.3302
0.00122321	71.5358
0.00123027	71.742
0.00123737	71.9488
0.00124451	72.1562
0.0012517	72.3642
0.00125893	72.5728
0.00126619	72.7819
0.0012735	72.9917
0.00128086	73.2021
0.00128825	73.4131
0.00129569	73.6247
0.00130317	73.8369
0.00131069	74.0498
0.00131826	74.2632
0.00132587	74.4773
0.00133352	74.6919
0.00134122	74.9072
0.00134896	75.1231
0.00135675	75.3397
0.00136458	75.5568
0.00137246	75.7746
0.00138038	75.993
0.00138835	76.2121
0.00139637	76.4317
0.00140443	76.652
0.00141254	76.873
0.00142069	77.0945
0.00142889	77.3168
0.00143714	77.5396
0.00144544	77.7631
0.00145378	77.9873
0.00146218	78.212
0.00147062	78.4375
0.00147911	78.6636
0.00148765	78.8903
0.00149624	79.1177
0.00150487	79.3457
0.00151356	79.5744
0.0015223	79.8038
0.00153109	80.0338
0.00153993	80.2645
0.00154882	80.4959
0.00155776	80.7279
0.00156675	80.9606
0.0015758	81.1939
0.00158489	81.428
0.00159404	81.6627
0.00160325	81.8981
0.0016125	82.1341
0.00162181	82.3709
0.00163117	82.6083
0.00164059	82.8464
0.00165006	83.0852
0.00165959	83.3247
0.00166917	83.5649
0.0016788	83.8057
0.0016885	84.0473
0.00169824	84.2895
0.00170805	84.5325
0.00171791	84.7761
0.00172783	85.0205
0.0017378	85.2656
0.00174783	85.5113
0.00175792	85.7578
0.00176807	86.005
0.00177828	86.2529
0.00178855	86.5015
0.00179887	86.7508
0.00180926	87.0009
0.0018197	87.2516
0.00183021	87.5031
0.00184077	87.7554
0.0018514	88.0083
0.00186209	88.262
0.00187284	88.5164
0.00188365	88.7715
0.00189452	89.0274
0.00190546	89.284
0.00191646	89.5414
0.00192752	89.7994
0.00193865	90.0583
0.00194984	90.3179
0.0019611	90.5782
0.00197242	90.8393
0.00198381	91.1011
0.00199526	91.3637
0.00200678	91.627
0.00201837	91.8911
0.00203002	92.156
0.00204174	92.4216
0.00205353	92.688
0.00206538	92.9552
0.0020773	93.2231
0.0020893	93.4918
0.00210136	93.7613
0.00211349	94.0316
0.00212569	94.3026
0.00213796	94.5744
0.0021503	94.847
0.00216272	95.1204
0.0021752	95.3946
0.00218776	95.6695
0.00220039	95.9453
0.00221309	96.2218
0.00222587	96.4992
0.00223872	96.7773
0.00225165	97.0563
0.00226464	97.336
0.00227772	97.6166
0.00229087	97.898
0.00230409	98.1801
0.00231739	98.4631
0.00233077	98.7469
0.00234423	99.0316
0.00235776	99.317
0.00237137	99.6033
0.00238506	99.8904
0.00239883	100.178
0.00241268	100.467
0.00242661	100.757
0.00244062	101.047
0.00245471	101.338
0.00246888	101.63
0.00248313	101.923
0.00249747	102.217
0.00251189	102.512
0.00252639	102.807
0.00254097	103.104
0.00255564	103.401
0.0025704	103.699
0.00258523	103.998
0.00260016	104.297
0.00261517	104.598
0.00263027	104.9
0.00264545	105.202
0.00266073	105.505
0.00267609	105.809
0.00269153	106.114
0.00270707	106.42
0.0027227	106.727
0.00273842	107.034
0.00275423	107.343
0.00277013	107.652
0.00278612	107.963
0.00280221	108.274
0.00281838	108.586
0.00283465	108.899
0.00285102	109.213
0.00286748	109.528
0.00288403	109.843
0.00290068	110.16
0.00291743	110.477
0.00293427	110.796
0.00295121	111.115
0.00296825	111.436
0.00298538	111.757
0.00300262	112.079
0.00301995	112.402
0.00303739	112.726
0.00305492	113.051
0.00307256	113.377
0.0030903	113.703
0.00310814	114.031
0.00312608	114.36
0.00314413	114.689
0.00316228	115.02
0.00318053	115.352
0.0031989	115.684
0.00321736	116.018
0.00323594	116.352
0.00325462	116.687
0.00327341	117.024
0.0032923	117.361
0.00331131	117.699
0.00333043	118.038
0.00334965	118.379
0.00336899	118.72
0.00338844	119.062
0.003408	119.405
0.00342768	119.749
0.00344747	120.095
0.00346737	120.441
0.00348739	120.788
0.00350752	121.136
0.00352777	121.485
0.00354813	121.835
0.00356862	122.187
0.00358922	122.539
0.00360994	122.892
0.00363078	123.246
0.00365174	123.601
0.00367282	123.958
0.00369403	124.315
0.00371535	124.673
0.0037368	125.033
0.00375837	125.393
0.00378007	125.755
0.00380189	126.117
0.00382384	126.481
0.00384592	126.845
0.00386812	127.211
0.00389045	127.577
0.00391291	127.945
0.0039355	128.314
0.00395822	128.684
0.00398107	129.055
0.00400405	129.427
0.00402717	129.8
0.00405042	130.174
0.0040738	130.549
0.00409732	130.925
0.00412098	131.303
0.00414477	131.681
0.00416869	132.061
0.00419276	132.441
0.00421697	132.823
0.00424131	133.206
0.0042658	133.59
0.00429042	133.975
0.00431519	134.361
0.0043401	134.748
0.00436516	135.137
0.00439036	135.526
0.0044157	135.917
0.0044412	136.309
0.00446684	136.702
0.00449262	137.096
0.00451856	137.491
0.00454465	137.887
0.00457088	138.285
0.00459727	138.683
0.00462381	139.083
0.0046505	139.484
0.00467735	139.886
0.00470435	140.289
0.00473151	140.693
0.00475883	141.099
0.0047863	141.506
0.00481393	141.913
0.00484172	142.323
0.00486968	142.733
0.00489779	143.144
0.00492606	143.557
0.0049545	143.971
0.0049831	144.386
0.00501187	144.802
0.00504081	145.219
0.00506991	145.638
0.00509918	146.057
0.00512861	146.478
0.00515822	146.901
0.005188	147.324
0.00521795	147.749
0.00524807	148.175
0.00527837	148.602
0.00530884	149.03
0.00533949	149.46
0.00537032	149.89
0.00540132	150.322
0.0054325	150.756
0.00546387	151.19
0.00549541	151.626
0.00552713	152.063
0.00555904	152.501
0.00559114	152.941
0.00562341	153.382
0.00565588	153.824
0.00568853	154.267
0.00572137	154.712
0.0057544	155.158
0.00578762	155.605
0.00582103	156.054
0.00585464	156.503
0.00588844	156.954
0.00592243	157.407
0.00595662	157.861
0.00599101	158.316
0.0060256	158.772
0.00606038	159.23
0.00609537	159.689
0.00613056	160.149
0.00616595	160.61
0.00620155	161.073
0.00623735	161.538
0.00627336	162.003
0.00630957	162.47
0.006346	162.938
0.00638263	163.408
0.00641948	163.879
0.00645654	164.351
0.00649382	164.825
0.00653131	165.3
0.00656901	165.777
0.00660693	166.255
0.00664508	166.734
0.00668344	167.214
0.00672202	167.696
0.00676083	168.18
0.00679986	168.664
0.00683912	169.151
0.0068786	169.638
0.00691831	170.127
0.00695825	170.618
0.00699842	171.109
0.00703882	171.603
0.00707946	172.097
0.00712033	172.593
0.00716143	173.091
0.00720278	173.59
0.00724436	174.09
0.00728618	174.592
0.00732825	175.095
0.00737055	175.6
0.0074131	176.106
0.0074559	176.613
0.00749894	177.122
0.00754223	177.633
0.00758578	178.145
0.00762957	178.658
0.00767361	179.173
0.00771792	179.69
0.00776247	180.208
0.00780728	180.727
0.00785236	181.248
0.00789769	181.771
0.00794328	182.295
0.00798914	182.82
0.00803526	183.347
0.00808165	183.875
0.00812831	184.405
0.00817523	184.937
0.00822243	185.47
0.0082699	186.005
0.00831764	186.541
0.00836566	187.078
0.00841395	187.618
0.00846253	188.158
0.00851138	188.701
0.00856052	189.245
0.00860994	189.79
0.00865964	190.337
0.00870964	190.886
0.00875992	191.436
0.00881049	191.988
0.00886135	192.541
0.00891251	193.096
0.00896396	193.653
0.00901571	194.211
0.00906776	194.771
0.00912011	195.332
0.00917276	195.895
0.00922571	196.46
0.00927897	197.026
0.00933254	197.594
0.00938642	198.163
0.00944061	198.735
0.00949511	199.308
0.00954993	199.882
0.00960506	200.458
0.00966051	201.036
0.00971628	201.615
0.00977237	202.197
0.00982879	202.779
0.00988553	203.364
0.0099426	203.95
0.01	204.538
0.0100577	205.127
0.0101158	205.719
0.0101742	206.312
0.0102329	206.906
0.010292	207.503
0.0103514	208.101
0.0104112	208.701
0.0104713	209.302
0.0105317	209.905
0.0105925	210.51
0.0106537	211.117
0.0107152	211.726
0.0107771	212.336
0.0108393	212.948
0.0109018	213.562
0.0109648	214.177
0.0110281	214.795
0.0110917	215.414
0.0111558	216.035
0.0112202	216.657
0.011285	217.27
0.0113501	217.881
0.0114156	218.494
0.0114815	219.108
0.0115478	219.725
0.0116145	220.343
0.0116815	220.963
0.011749	221.585
0.0118168	222.208
0.011885	222.833
0.0119536	223.461
0.0120226	224.09
0.0120921	224.72
0.0121619	225.353
0.0122321	225.987
0.0123027	226.623
0.0123737	227.262
0.0124451	227.901
0.012517	228.543
0.0125893	229.187
0.0126619	229.832
0.012735	230.48
0.0128086	231.129
0.0128825	231.78
0.0129569	232.433
0.0130317	233.087
0.0131069	233.744
0.0131826	234.403
0.0132587	235.063
0.0133352	235.726
0.0134122	236.39
0.0134896	237.056
0.0135675	237.724
0.0136458	238.394
0.0137246	239.066
0.0138038	239.74
0.0138835	240.416
0.0139637	241.094
0.0140443	241.774
0.0141254	242.455
0.0142069	243.139
0.0142889	243.825
0.0143714	244.512
0.0144544	245.202
0.0145378	245.894
0.0146218	246.587
0.0147062	247.283
0.0147911	247.981
0.0148765	248.68
0.0149624	249.382
0.0150487	250.086
0.0151356	250.791
0.015223	251.499
0.0153109	252.209
0.0153993	252.921
0.0154882	253.635
0.0155776	254.351
0.0156675	255.069
0.015758	255.789
0.0158489	256.511
0.0159404	257.235
0.0160325	257.962
0.016125	258.69
0.0162181	259.421
0.0163117	260.153
0.0164059	260.888
0.0165006	261.625
0.0165959	262.364
0.0166917	263.105
0.016788	263.849
0.016885	264.594
0.0169824	265.342
0.0170805	266.092
0.0171791	266.844
0.0172783	267.598
0.017378	268.354
0.0174783	269.113
0.0175792	269.874
0.0176807	270.637
0.0177828	271.402
0.0178855	272.169
0.0179887	272.939
0.0180926	273.71
0.018197	274.484
0.0183021	275.261
0.0184077	276.039
0.018514	276.82
0.0186209	277.603
0.0187284	278.388
0.0188365	279.176
0.0189452	279.966
0.0190546	280.758
0.0191646	281.552
0.0192752	282.349
0.0193865	283.148
0.0194984	283.95
0.019611	284.753
0.0197242	285.559
0.0198381	286.368
0.0199526	287.178
0.0200678	287.991
0.0201837	288.807
0.0203002	289.625
0.0204174	290.445
0.0205353	291.267
0.0206538	292.092
0.020773	292.919
0.020893	293.749
0.0210136	294.581
0.0211349	295.416
0.0212569	296.253
0.0213796	297.092
0.021503	297.934
0.0216272	298.778
0.021752	299.625
0.0218776	300.474
0.0220039	301.326
0.0221309	302.18
0.0222587	303.036
0.0223872	303.895
0.0225165	304.757
0.0226464	305.621
0.0227772	306.487
0.0229087	307.356
0.0230409	308.228
0.0231739	309.102
0.0233077	309.979
0.0234423	310.858
0.0235776	311.74
0.0237137	312.624
0.0238506	313.511
0.0239883	314.4
0.0241268	315.293
0.0242661	316.187
0.0244062	317.084
0.0245471	317.984
0.0246888	318.887
0.0248313	319.792
0.0249747	320.7
0.0251189	321.61
0.0252639	322.523
0.0254097	323.439
0.0255564	324.357
0.025704	325.278
0.0258523	326.202
0.0260016	327.128
0.0261517	328.057
0.0263027	328.989
0.0264545	329.923
0.0266073	330.86
0.0267609	331.8
0.0269153	332.743
0.0270707	333.688
0.027227	334.636
0.0273842	335.587
0.0275423	336.541
0.0277013	337.497
0.0278612	338.457
0.0280221	339.419
0.0281838	340.383
0.0283465	341.351
0.0285102	342.322
0.0286748	343.295
0.0288403	344.271
0.0290068	345.25
0.0291743	346.232
0.0293427	347.216
0.0295121	348.204
0.0296825	349.194
0.0298538	350.187
0.0300262	351.184
0.0301995	352.183
0.0303739	353.185
0.0305492	354.19
0.0307256	355.197
0.030903	356.208
0.0310814	357.222
0.0312608	358.239
0.0314413	359.258
0.0316228	360.281
0.0318053	361.307
0.031989	362.335
0.0321736	363.367
0.0323594	364.401
0.0325462	365.439
0.0327341	366.48
0.032923	367.523
0.0331131	368.57
0.0333043	369.62
0.0334965	370.673
0.0336899	371.729
0.0338844	372.787
0.03408	373.85
0.0342768	374.915
0.0344747	375.983
0.0346737	377.054
0.0348739	378.129
0.0350752	379.207
0.0352777	380.287
0.0354813	381.371
0.0356862	382.459
0.0358922	383.549
0.0360994	384.642
0.0363078	385.739
0.0365174	386.839
0.0367282	387.942
0.0369403	389.048
0.0371535	390.158
0.037368	391.271
0.0375837	392.387
0.0378007	393.506
0.0380189	394.629
0.0382384	395.755
0.0384592	396.884
0.0386812	398.016
0.0389045	399.152
0.0391291	400.291
0.039355	401.434
0.0395822	402.579
0.0398107	403.728
0.0400405	404.881
0.0402717	406.037
0.0405042	407.196
0.040738	408.359
0.0409732	409.525
0.0412098	410.694
0.0414477	411.867
0.0416869	413.043
0.0419276	414.223
0.0421697	415.406
0.0424131	416.593
0.042658	417.783
0.0429042	418.976
0.0431519	420.174
0.043401	421.374
0.0436516	422.578
0.0439036	423.786
0.044157	424.997
0.044412	426.212
0.0446684	427.43
0.0449262	428.652
0.0451856	429.001
0.0454465	429.288
0.0457088	429.578
0.0459727	429.87
0.0462381	430.166
0.046505	430.464
0.0467735	430.766
0.0470435	431.07
0.0473151	431.377
0.0475883	431.687
0.047863	432
0.0481393	432.315
0.0484172	432.633
0.0486968	432.954
0.0489779	433.277
0.0492606	433.603
0.049545	433.931
0.049831	434.262
0.0501187	434.595
0.0504081	434.931
0.0506991	435.269
0.0509918	435.61
0.0512861	435.953
0.0515822	436.298
0.05188	436.645
0.0521795	436.995
0.0524807	437.347
0.0527837	437.702
0.0530884	438.058
0.0533949	438.417
0.0537032	438.777
0.0540132	439.14
0.054325	439.505
0.0546387	439.872
0.0549541	440.241
0.0552713	440.612
0.0555904	440.985
0.0559114	441.361
0.0562341	441.738
0.0565588	442.117
0.0568853	442.498
0.0572137	442.88
0.057544	443.265
0.0578762	443.652
0.0582103	444.04
0.0585464	444.43
0.0588844	444.822
0.0592243	445.216
0.0595662	445.612
0.0599101	446.009
0.060256	446.408
0.0606038	446.809
0.0609537	447.212
0.0613056	447.616
0.0616595	448.022
0.0620155	448.43
0.0623735	448.84
0.0627336	449.251
0.0630957	449.663
0.06346	450.078
0.0638263	450.494
0.0641948	450.911
0.0645654	451.331
0.0649382	451.752
0.0653131	452.174
0.0656901	452.598
0.0660693	453.024
0.0664508	453.451
0.0668344	453.879
0.0672202	454.31
0.0676083	454.741
0.0679986	455.175
0.0683912	455.61
0.068786	456.046
0.0691831	456.484
0.0695825	456.923
0.0699842	457.364
0.0703882	457.806
0.0707946	458.25
0.0712033	458.696
0.0716143	459.142
0.0720278	459.591
0.0724436	460.041
0.0728618	460.492
0.0732825	460.945
0.0737055	461.399
0.074131	461.855
0.074559	462.312
0.0749894	462.77
0.0754223	463.23
0.0758578	463.692
0.0762957	464.155
0.0767361	464.619
0.0771792	465.085
0.0776247	465.552
0.0780728	466.021
0.0785236	466.491
0.0789769	466.963
0.0794328	467.436
0.0798914	467.911
0.0803526	468.387
0.0808165	468.865
0.0812831	469.343
0.0817523	469.824
0.0822243	470.306
0.082699	470.789
0.0831764	471.274
0.0836566	471.76
0.0841395	472.248
0.0846253	472.737
0.0851138	473.228
0.0856052	473.72
0.0860994	474.214
0.0865964	474.709
0.0870964	475.206
0.0875992	475.704
0.0881049	476.203
0.0886135	476.705
0.0891251	477.207
0.0896396	477.711
0.0901571	478.217
0.0906776	478.724
0.0912011	479.233
0.0917276	479.743
0.0922571	480.255
0.0927897	480.769
0.0933254	481.283
0.0938642	481.8
0.0944061	482.318
0.0949511	482.838
0.0954993	483.359
0.0960506	483.881
0.0966051	484.406
0.0971628	484.932
0.0977237	485.459
0.0982879	485.988
0.0988553	486.519
0.099426	487.052
0.1	487.586
0.100577	488.121
0.101158	488.659
0.101742	489.197
0.102329	489.738
0.10292	490.28
0.103514	490.824
0.104112	491.37
0.104713	491.917
0.105317	492.466
0.105925	493.017
0.106537	493.57
0.107152	494.124
0.107771	494.68
0.108393	495.238
0.109018	495.797
0.109648	496.358
0.110281	496.921
0.110917	497.486
0.111558	498.053
0.112202	498.621
0.11285	499.192
0.113501	499.764
0.114156	500.338
0.114815	500.913
0.115478	501.491
0.116145	502.071
0.116815	502.652
0.11749	503.235
0.118168	503.82
0.11885	504.407
0.119536	504.996
0.120226	505.587
0.120921	506.18
0.121619	506.775
0.122321	507.372
0.123027	507.971
0.123737	508.572
0.124451	509.174
0.12517	509.779
0.125893	510.386
0.126619	510.995
0.12735	511.606
0.128086	512.219
0.128825	512.834
0.129569	513.451
0.130317	514.07
0.131069	514.691
0.131826	515.315
0.132587	515.94
0.133352	516.568
0.134122	517.198
0.134896	517.83
0.135675	518.464
0.136458	519.1
0.137246	519.739
0.138038	520.38
0.138835	521.023
0.139637	521.668
0.140443	522.315
0.141254	522.965
0.142069	523.617
0.142889	524.272
0.143714	524.928
0.144544	525.587
0.145378	526.248
0.146218	526.912
0.147062	527.578
0.147911	528.246
0.148765	528.917
0.149624	529.59
0.150487	530.266
0.151356	530.944
0.15223	531.624
0.153109	532.307
0.153993	532.992
0.154882	533.68
0.155776	534.37
0.156675	535.063
0.15758	535.758
0.158489	536.455
0.159404	537.156
0.160325	537.859
0.16125	538.564
0.162181	539.272
0.163117	539.982
0.164059	540.696
0.165006	541.411
0.165959	542.13
0.166917	542.851
0.16788	543.574
0.16885	544.301
0.169824	545.03
0.170805	545.761
0.171791	546.496
0.172783	547.233
0.17378	547.973
0.174783	548.715
0.175792	549.461
0.176807	550.209
0.177828	550.96
0.178855	551.714
0.179887	552.47
0.180926	553.23
0.18197	553.992
0.183021	554.757
0.184077	555.525
0.18514	556.296
0.186209	557.07
0.187284	557.846
0.188365	558.626
0.189452	559.408
0.190546	560.194
0.191646	560.982
0.192752	561.774
0.193865	562.568
0.194984	563.366
0.19611	564.166
0.197242	564.97
0.198381	565.776
0.199526	566.586
0.200678	567.398
0.201837	568.214
0.203002	569.033
0.204174	569.855
0.205353	570.68
0.206538	571.508
0.20773	572.34
0.20893	573.174
0.210136	574.012
0.211349	574.853
0.212569	575.697
0.213796	576.544
0.21503	577.395
0.216272	578.249
0.21752	579.106
0.218776	579.966
0.220039	580.83
0.221309	581.697
0.222587	582.567
0.223872	583.441
0.225165	584.318
0.226464	585.199
0.227772	586.082
0.229087	586.969
0.230409	587.86
0.231739	588.754
0.233077	589.651
0.234423	590.552
0.235776	591.456
0.237137	592.364
0.238506	593.275
0.239883	594.19
0.241268	595.108
0.242661	596.03
0.244062	596.955
0.245471	597.884
0.246888	598.816
0.248313	599.752
0.249747	600.692
0.251189	601.635
0.252639	602.582
0.254097	603.532
0.255564	604.486
0.25704	605.444
0.258523	606.405
0.260016	607.371
0.261517	608.339
0.263027	609.312
0.264545	610.288
0.266073	611.268
0.267609	612.251
0.269153	613.239
0.270707	614.23
0.27227	615.225
0.273842	616.224
0.275423	617.226
0.277013	618.233
0.278612	619.243
0.280221	620.257
0.281838	621.275
0.283465	622.297
0.285102	623.323
0.286748	624.352
0.288403	625.386
0.290068	626.423
0.291743	627.465
0.293427	628.51
0.295121	629.56
0.296825	630.613
0.298538	631.67
0.300262	632.732
0.301995	633.797
0.303739	634.866
0.305492	635.94
0.307256	637.017
0.30903	638.099
0.310814	639.184
0.312608	640.274
0.314413	641.368
0.316228	642.466
0.318053	643.568
0.31989	644.674
0.321736	645.784
0.323594	646.899
0.325462	648.017
0.327341	649.14
0.32923	650.267
0.331131	651.399
0.333043	652.534
0.334965	653.674
0.336899	654.818
0.338844	655.966
0.3408	657.119
0.342768	658.275
0.344747	659.436
0.346737	660.602
0.348739	661.772
0.350752	662.946
0.352777	664.124
0.354813	665.307
0.356862	666.494
0.358922	667.685
0.360994	668.881
0.363078	670.081
0.365174	671.286
0.367282	672.495
0.369403	673.709
0.371535	674.927
0.37368	676.149
0.375837	677.376
0.378007	678.607
0.380189	679.843
0.382384	681.083
0.384592	682.328
0.386812	683.577
0.389045	684.831
0.391291	686.09
0.39355	687.353
0.395822	688.62
0.398107	689.892
0.400405	691.169
0.402717	692.45
0.405042	693.736
0.40738	695.026
0.409732	696.321
0.412098	697.621
0.414477	698.925
0.416869	700.234
0.419276	701.548
0.421697	702.866
0.424131	704.189
0.42658	705.516
0.429042	706.849
0.431519	708.185
0.43401	709.527
0.436516	710.874
0.439036	712.225
0.44157	713.581
0.44412	714.941
0.446684	716.306
0.449262	717.677
0.451856	719.051
0.454465	720.431
0.457088	721.815
0.459727	723.205
0.462381	724.599
0.46505	725.997
0.467735	727.401
0.470435	728.81
0.473151	730.223
0.475883	731.641
0.47863	733.064
0.481393	734.492
0.484172	735.924
0.486968	737.362
0.489779	738.804
0.492606	740.251
0.49545	741.704
0.49831	743.161
0.501187	744.622
0.504081	746.089
0.506991	747.561
0.509918	749.038
0.512861	750.519
0.515822	752.006
0.5188	753.497
0.521795	754.993
0.524807	756.495
0.527837	758.001
0.530884	759.512
0.533949	761.028
0.537032	762.549
0.540132	764.075
0.54325	765.606
0.546387	767.142
0.549541	768.683
0.552713	770.229
0.555904	771.779
0.559114	773.335
0.562341	774.896
0.565588	776.462
0.568853	778.033
0.572137	779.608
0.57544	781.189
0.578762	782.775
0.582103	784.366
0.585464	785.961
0.588844	787.562
0.592243	789.168
0.595662	790.779
0.599101	792.394
0.60256	794.015
0.606038	795.641
0.609537	797.272
