Stopping power dEdx from Ionisation for Si28[0.0] Z = 14 in Water, process name: ionIoni
E [MeV]	dEdx [MeV/mm]
0.001	22.7564
0.00100577	22.8224
0.00101158	22.8885
0.00101742	22.9549
0.00102329	23.0214
0.0010292	23.0882
0.00103514	23.1551
0.00104112	23.2222
0.00104713	23.2895
0.00105317	23.357
0.00105925	23.4247
0.00106537	23.4926
0.00107152	23.5607
0.00107771	23.629
0.00108393	23.6975
0.00109018	23.7662
0.00109648	23.8351
0.00110281	23.9041
0.00110917	23.9734
0.00111558	24.0429
0.00112202	24.1126
0.0011285	24.1825
0.00113501	24.2525
0.00114156	24.3228
0.00114815	24.3933
0.00115478	24.464
0.00116145	24.5349
0.00116815	24.606
0.0011749	24.6773
0.00118168	24.7488
0.0011885	24.8205
0.00119536	24.8924
0.00120226	24.9645
0.00120921	25.0369
0.00121619	25.1094
0.00122321	25.1822
0.00123027	25.2551
0.00123737	25.3283
0.00124451	25.4017
0.0012517	25.4753
0.00125893	25.5491
0.00126619	25.6231
0.0012735	25.6973
0.00128086	25.7718
0.00128825	25.8465
0.00129569	25.9213
0.00130317	25.9964
0.00131069	26.0717
0.00131826	26.1473
0.00132587	26.223
0.00133352	26.299
0.00134122	26.3751
0.00134896	26.4515
0.00135675	26.5282
0.00136458	26.605
0.00137246	26.6821
0.00138038	26.7594
0.00138835	26.8369
0.00139637	26.9146
0.00140443	26.9925
0.00141254	27.0707
0.00142069	27.1491
0.00142889	27.2278
0.00143714	27.3066
0.00144544	27.3857
0.00145378	27.465
0.00146218	27.5446
0.00147062	27.6243
0.00147911	27.7043
0.00148765	27.7846
0.00149624	27.865
0.00150487	27.9457
0.00151356	28.0267
0.0015223	28.1078
0.00153109	28.1892
0.00153993	28.2708
0.00154882	28.3527
0.00155776	28.4348
0.00156675	28.5171
0.0015758	28.5997
0.00158489	28.6825
0.00159404	28.7656
0.00160325	28.8489
0.0016125	28.9324
0.00162181	29.0162
0.00163117	29.1002
0.00164059	29.1844
0.00165006	29.2689
0.00165959	29.3537
0.00166917	29.4387
0.0016788	29.5239
0.0016885	29.6094
0.00169824	29.6951
0.00170805	29.7811
0.00171791	29.8673
0.00172783	29.9538
0.0017378	30.0405
0.00174783	30.1274
0.00175792	30.2147
0.00176807	30.3021
0.00177828	30.3898
0.00178855	30.4778
0.00179887	30.566
0.00180926	30.6545
0.0018197	30.7433
0.00183021	30.8322
0.00184077	30.9215
0.0018514	31.011
0.00186209	31.1008
0.00187284	31.1908
0.00188365	31.2811
0.00189452	31.3716
0.00190546	31.4624
0.00191646	31.5535
0.00192752	31.6448
0.00193865	31.7364
0.00194984	31.8282
0.0019611	31.9204
0.00197242	32.0127
0.00198381	32.1054
0.00199526	32.1983
0.00200678	32.2915
0.00201837	32.3849
0.00203002	32.4787
0.00204174	32.5727
0.00205353	32.6669
0.00206538	32.7615
0.0020773	32.8563
0.0020893	32.9514
0.00210136	33.0467
0.00211349	33.1423
0.00212569	33.2382
0.00213796	33.3344
0.0021503	33.4309
0.00216272	33.5276
0.0021752	33.6246
0.00218776	33.7219
0.00220039	33.8195
0.00221309	33.9174
0.00222587	34.0155
0.00223872	34.1139
0.00225165	34.2126
0.00226464	34.3116
0.00227772	34.4109
0.00229087	34.5105
0.00230409	34.6103
0.00231739	34.7105
0.00233077	34.8109
0.00234423	34.9116
0.00235776	35.0126
0.00237137	35.1139
0.00238506	35.2155
0.00239883	35.3174
0.00241268	35.4196
0.00242661	35.522
0.00244062	35.6248
0.00245471	35.7279
0.00246888	35.8312
0.00248313	35.9349
0.00249747	36.0388
0.00251189	36.1431
0.00252639	36.2476
0.00254097	36.3525
0.00255564	36.4576
0.0025704	36.5631
0.00258523	36.6689
0.00260016	36.7749
0.00261517	36.8813
0.00263027	36.988
0.00264545	37.095
0.00266073	37.2023
0.00267609	37.3099
0.00269153	37.4178
0.00270707	37.5261
0.0027227	37.6346
0.00273842	37.7435
0.00275423	37.8526
0.00277013	37.9621
0.00278612	38.0719
0.00280221	38.182
0.00281838	38.2924
0.00283465	38.4032
0.00285102	38.5143
0.00286748	38.6257
0.00288403	38.7374
0.00290068	38.8494
0.00291743	38.9618
0.00293427	39.0744
0.00295121	39.1874
0.00296825	39.3008
0.00298538	39.4144
0.00300262	39.5284
0.00301995	39.6427
0.00303739	39.7574
0.00305492	39.8723
0.00307256	39.9877
0.0030903	40.1033
0.00310814	40.2193
0.00312608	40.3356
0.00314413	40.4522
0.00316228	40.5692
0.00318053	40.6865
0.0031989	40.8041
0.00321736	40.9221
0.00323594	41.0405
0.00325462	41.1591
0.00327341	41.2781
0.0032923	41.3975
0.00331131	41.5172
0.00333043	41.6373
0.00334965	41.7576
0.00336899	41.8784
0.00338844	41.9995
0.003408	42.1209
0.00342768	42.2427
0.00344747	42.3648
0.00346737	42.4873
0.00348739	42.6102
0.00350752	42.7334
0.00352777	42.8569
0.00354813	42.9808
0.00356862	43.1051
0.00358922	43.2297
0.00360994	43.3547
0.00363078	43.48
0.00365174	43.6057
0.00367282	43.7318
0.00369403	43.8582
0.00371535	43.985
0.0037368	44.1122
0.00375837	44.2397
0.00378007	44.3676
0.00380189	44.4959
0.00382384	44.6245
0.00384592	44.7535
0.00386812	44.8829
0.00389045	45.0126
0.00391291	45.1427
0.0039355	45.2732
0.00395822	45.4041
0.00398107	45.5353
0.00400405	45.667
0.00402717	45.799
0.00405042	45.9314
0.0040738	46.0641
0.00409732	46.1973
0.00412098	46.3308
0.00414477	46.4647
0.00416869	46.5991
0.00419276	46.7337
0.00421697	46.8688
0.00424131	47.0043
0.0042658	47.1402
0.00429042	47.2764
0.00431519	47.4131
0.0043401	47.5501
0.00436516	47.6875
0.00439036	47.8254
0.0044157	47.9636
0.0044412	48.1022
0.00446684	48.2412
0.00449262	48.3807
0.00451856	48.5205
0.00454465	48.6607
0.00457088	48.8014
0.00459727	48.9424
0.00462381	49.0839
0.0046505	49.2257
0.00467735	49.368
0.00470435	49.5107
0.00473151	49.6537
0.00475883	49.7972
0.0047863	49.9411
0.00481393	50.0855
0.00484172	50.2302
0.00486968	50.3754
0.00489779	50.521
0.00492606	50.667
0.0049545	50.8134
0.0049831	50.9602
0.00501187	51.1075
0.00504081	51.2552
0.00506991	51.4033
0.00509918	51.5518
0.00512861	51.7008
0.00515822	51.8502
0.005188	52
0.00521795	52.1503
0.00524807	52.4319
0.00527837	52.5831
0.00530884	52.7346
0.00533949	52.8866
0.00537032	53.0391
0.00540132	53.1919
0.0054325	53.3453
0.00546387	53.499
0.00549541	53.6532
0.00552713	53.8079
0.00555904	53.963
0.00559114	54.1185
0.00562341	54.2745
0.00565588	54.4309
0.00568853	54.5878
0.00572137	54.7452
0.0057544	54.903
0.00578762	55.0612
0.00582103	55.2199
0.00585464	55.3791
0.00588844	55.5387
0.00592243	55.6988
0.00595662	55.8593
0.00599101	56.0204
0.0060256	56.1818
0.00606038	56.3438
0.00609537	56.5062
0.00613056	56.669
0.00616595	56.8324
0.00620155	56.9962
0.00623735	57.1605
0.00627336	57.3252
0.00630957	57.4905
0.006346	57.6562
0.00638263	57.8224
0.00641948	57.989
0.00645654	58.1562
0.00649382	58.3238
0.00653131	58.4919
0.00656901	58.6605
0.00660693	58.8296
0.00664508	58.9992
0.00668344	59.1692
0.00672202	59.3398
0.00676083	59.5108
0.00679986	59.6823
0.00683912	59.8544
0.0068786	60.0269
0.00691831	60.1999
0.00695825	60.3734
0.00699842	60.5474
0.00703882	60.722
0.00707946	60.897
0.00712033	61.0725
0.00716143	61.2486
0.00720278	61.4251
0.00724436	61.6021
0.00728618	61.7797
0.00732825	61.9578
0.00737055	62.1364
0.0074131	62.3155
0.0074559	62.4951
0.00749894	62.6752
0.00754223	62.8559
0.00758578	63.037
0.00762957	63.2187
0.00767361	63.401
0.00771792	63.5837
0.00776247	63.767
0.00780728	63.9508
0.00785236	64.1351
0.00789769	64.32
0.00794328	64.5054
0.00798914	64.6913
0.00803526	64.8778
0.00808165	65.0648
0.00812831	65.2523
0.00817523	65.4404
0.00822243	65.629
0.0082699	65.8182
0.00831764	66.0079
0.00836566	66.1982
0.00841395	66.389
0.00846253	66.5803
0.00851138	66.7722
0.00856052	66.9647
0.00860994	67.1577
0.00865964	67.3513
0.00870964	67.5454
0.00875992	67.7401
0.00881049	67.9354
0.00886135	68.1312
0.00891251	68.3276
0.00896396	68.5245
0.00901571	68.722
0.00906776	68.9201
0.00912011	69.1187
0.00917276	69.318
0.00922571	69.5178
0.00927897	69.7182
0.00933254	69.9191
0.00938642	70.1206
0.00944061	70.3228
0.00949511	70.5254
0.00954993	70.7287
0.00960506	70.9326
0.00966051	71.1371
0.00971628	71.3421
0.00977237	71.5477
0.00982879	71.754
0.00988553	71.9608
0.0099426	72.1682
0.01	72.3762
0.0100577	72.5848
0.0101158	72.794
0.0101742	73.0039
0.0102329	73.2143
0.010292	73.4253
0.0103514	73.637
0.0104112	73.8492
0.0104713	74.0621
0.0105317	74.2755
0.0105925	74.4896
0.0106537	74.7043
0.0107152	74.9197
0.0107771	75.1356
0.0108393	75.3522
0.0109018	75.5694
0.0109648	75.7872
0.0110281	76.0056
0.0110917	76.2247
0.0111558	76.4444
0.0112202	76.6648
0.011285	76.8858
0.0113501	77.1074
0.0114156	77.3296
0.0114815	77.5525
0.0115478	77.776
0.0116145	78.0002
0.0116815	78.2251
0.011749	78.4505
0.0118168	78.6766
0.011885	78.9034
0.0119536	79.1309
0.0120226	79.3589
0.0120921	79.5877
0.0121619	79.8171
0.0122321	80.0471
0.0123027	80.2779
0.0123737	80.5093
0.0124451	80.7413
0.012517	80.974
0.0125893	81.2074
0.0126619	81.4415
0.012735	81.6763
0.0128086	81.9117
0.0128825	82.1478
0.0129569	82.3846
0.0130317	82.622
0.0131069	82.8602
0.0131826	83.099
0.0132587	83.3385
0.0133352	83.5787
0.0134122	83.8197
0.0134896	84.0613
0.0135675	84.3035
0.0136458	84.5465
0.0137246	84.7902
0.0138038	85.0346
0.0138835	85.2797
0.0139637	85.5255
0.0140443	85.7721
0.0141254	86.0193
0.0142069	86.2672
0.0142889	86.5159
0.0143714	86.7653
0.0144544	87.0153
0.0145378	87.2662
0.0146218	87.5177
0.0147062	87.77
0.0147911	88.0229
0.0148765	88.2767
0.0149624	88.5311
0.0150487	88.7863
0.0151356	89.0422
0.015223	89.2988
0.0153109	89.5562
0.0153993	89.8144
0.0154882	90.0733
0.0155776	90.3329
0.0156675	90.5933
0.015758	90.8544
0.0158489	91.1163
0.0159404	91.3789
0.0160325	91.6423
0.016125	91.9064
0.0162181	92.1713
0.0163117	92.437
0.0164059	92.7034
0.0165006	92.9706
0.0165959	93.2386
0.0166917	93.5074
0.016788	93.7769
0.016885	94.0472
0.0169824	94.3183
0.0170805	94.5901
0.0171791	94.8628
0.0172783	95.1362
0.017378	95.4104
0.0174783	95.6854
0.0175792	95.9612
0.0176807	96.2378
0.0177828	96.5152
0.0178855	96.7934
0.0179887	97.0724
0.0180926	97.3522
0.018197	97.6328
0.0183021	97.9142
0.0184077	98.1965
0.018514	98.4795
0.0186209	98.7634
0.0187284	99.048
0.0188365	99.3335
0.0189452	99.6198
0.0190546	99.907
0.0191646	100.195
0.0192752	100.484
0.0193865	100.773
0.0194984	101.064
0.019611	101.355
0.0197242	101.647
0.0198381	101.94
0.0199526	102.234
0.0200678	102.529
0.0201837	102.824
0.0203002	103.121
0.0204174	103.418
0.0205353	103.716
0.0206538	104.015
0.020773	104.315
0.020893	104.615
0.0210136	104.917
0.0211349	105.219
0.0212569	105.523
0.0213796	105.827
0.021503	106.132
0.0216272	106.438
0.021752	106.745
0.0218776	107.052
0.0220039	107.361
0.0221309	107.67
0.0222587	107.981
0.0223872	108.292
0.0225165	108.604
0.0226464	108.917
0.0227772	109.231
0.0229087	109.546
0.0230409	109.862
0.0231739	110.178
0.0233077	110.496
0.0234423	110.814
0.0235776	111.134
0.0237137	111.454
0.0238506	111.775
0.0239883	112.097
0.0241268	112.421
0.0242661	112.745
0.0244062	113.07
0.0245471	113.396
0.0246888	113.722
0.0248313	114.05
0.0249747	114.379
0.0251189	114.709
0.0252639	115.039
0.0254097	115.371
0.0255564	115.703
0.025704	116.037
0.0258523	116.371
0.0260016	116.707
0.0261517	117.043
0.0263027	117.38
0.0264545	117.719
0.0266073	118.058
0.0267609	118.398
0.0269153	118.74
0.0270707	119.082
0.027227	119.425
0.0273842	119.769
0.0275423	120.115
0.0277013	120.461
0.0278612	120.808
0.0280221	121.156
0.0281838	121.505
0.0283465	121.856
0.0285102	122.207
0.0286748	122.559
0.0288403	122.912
0.0290068	123.267
0.0291743	123.622
0.0293427	123.978
0.0295121	124.336
0.0296825	124.694
0.0298538	125.054
0.0300262	125.414
0.0301995	125.775
0.0303739	126.138
0.0305492	126.502
0.0307256	126.866
0.030903	127.232
0.0310814	127.599
0.0312608	127.966
0.0314413	128.335
0.0316228	128.705
0.0318053	129.076
0.031989	129.448
0.0321736	129.821
0.0323594	130.195
0.0325462	130.571
0.0327341	130.947
0.032923	131.325
0.0331131	131.703
0.0333043	132.083
0.0334965	132.463
0.0336899	132.845
0.0338844	133.228
0.03408	133.612
0.0342768	133.997
0.0344747	134.383
0.0346737	134.771
0.0348739	135.159
0.0350752	135.549
0.0352777	135.94
0.0354813	136.331
0.0356862	136.724
0.0358922	137.118
0.0360994	137.514
0.0363078	137.91
0.0365174	138.308
0.0367282	138.706
0.0369403	139.106
0.0371535	139.507
0.037368	139.909
0.0375837	140.312
0.0378007	140.717
0.0380189	141.122
0.0382384	141.529
0.0384592	141.937
0.0386812	142.346
0.0389045	142.756
0.0391291	143.168
0.039355	143.581
0.0395822	143.994
0.0398107	144.41
0.0400405	144.826
0.0402717	145.243
0.0405042	145.662
0.040738	146.082
0.0409732	146.503
0.0412098	146.925
0.0414477	147.349
0.0416869	147.773
0.0419276	148.199
0.0421697	148.626
0.0424131	149.055
0.042658	149.484
0.0429042	149.915
0.0431519	150.347
0.043401	150.781
0.0436516	151.215
0.0439036	151.651
0.044157	152.088
0.044412	152.527
0.0446684	152.966
0.0449262	153.407
0.0451856	153.849
0.0454465	154.293
0.0457088	154.738
0.0459727	155.184
0.0462381	155.631
0.046505	156.079
0.0467735	156.529
0.0470435	156.981
0.0473151	157.433
0.0475883	157.887
0.047863	158.342
0.0481393	158.798
0.0484172	159.256
0.0486968	159.715
0.0489779	160.175
0.0492606	160.637
0.049545	161.1
0.049831	161.564
0.0501187	162.03
0.0504081	162.497
0.0506991	162.966
0.0509918	163.435
0.0512861	163.906
0.0515822	164.379
0.05188	164.853
0.0521795	165.328
0.0524807	165.804
0.0527837	166.282
0.0530884	166.762
0.0533949	167.242
0.0537032	167.724
0.0540132	168.208
0.054325	168.693
0.0546387	169.179
0.0549541	169.666
0.0552713	170.155
0.0555904	170.646
0.0559114	171.138
0.0562341	171.631
0.0565588	172.126
0.0568853	172.622
0.0572137	173.119
0.057544	173.618
0.0578762	174.119
0.0582103	174.621
0.0585464	175.124
0.0588844	175.629
0.0592243	176.135
0.0595662	176.643
0.0599101	177.152
0.060256	177.663
0.0606038	178.175
0.0609537	178.688
0.0613056	179.203
0.0616595	179.72
0.0620155	180.238
0.0623735	180.757
0.0627336	181.278
0.0630957	181.801
0.06346	182.325
0.0638263	182.85
0.0641948	183.377
0.0645654	183.906
0.0649382	184.436
0.0653131	184.968
0.0656901	185.501
0.0660693	186.036
0.0664508	186.572
0.0668344	187.11
0.0672202	187.649
0.0676083	188.19
0.0679986	188.732
0.0683912	189.276
0.068786	189.822
0.0691831	190.369
0.0695825	190.918
0.0699842	191.468
0.0703882	192.02
0.0707946	192.573
0.0712033	193.128
0.0716143	193.685
0.0720278	194.243
0.0724436	194.803
0.0728618	195.365
0.0732825	195.928
0.0737055	196.492
0.074131	197.059
0.074559	197.627
0.0749894	198.196
0.0754223	198.768
0.0758578	199.341
0.0762957	199.915
0.0767361	200.491
0.0771792	201.069
0.0776247	201.649
0.0780728	202.23
0.0785236	202.813
0.0789769	203.398
0.0794328	203.984
0.0798914	204.572
0.0803526	205.161
0.0808165	205.753
0.0812831	206.346
0.0817523	206.941
0.0822243	207.537
0.082699	208.135
0.0831764	208.735
0.0836566	209.337
0.0841395	209.94
0.0846253	210.545
0.0851138	211.152
0.0856052	211.761
0.0860994	212.371
0.0865964	212.983
0.0870964	213.597
0.0875992	214.213
0.0881049	214.83
0.0886135	215.45
0.0891251	216.071
0.0896396	216.693
0.0901571	217.318
0.0906776	217.944
0.0912011	218.573
0.0917276	219.203
0.0922571	219.835
0.0927897	220.468
0.0933254	221.104
0.0938642	221.741
0.0944061	222.38
0.0949511	223.021
0.0954993	223.664
0.0960506	224.309
0.0966051	224.955
0.0971628	225.604
0.0977237	226.254
0.0982879	226.906
0.0988553	227.56
0.099426	228.216
0.1	228.874
0.100577	229.533
0.101158	230.195
0.101742	230.858
0.102329	231.524
0.10292	232.191
0.103514	232.861
0.104112	233.532
0.104713	234.205
0.105317	234.88
0.105925	235.557
0.106537	236.236
0.107152	236.917
0.107771	237.6
0.108393	238.285
0.109018	238.971
0.109648	239.66
0.110281	240.351
0.110917	241.044
0.111558	241.739
0.112202	242.435
0.11285	243.134
0.113501	243.835
0.114156	244.538
0.114815	245.243
0.115478	245.949
0.116145	246.658
0.116815	247.369
0.11749	248.082
0.118168	248.797
0.11885	249.515
0.119536	250.234
0.120226	250.955
0.120921	251.678
0.121619	252.404
0.122321	253.131
0.123027	253.861
0.123737	254.593
0.124451	255.326
0.12517	256.062
0.125893	256.8
0.126619	257.541
0.12735	258.283
0.128086	259.027
0.128825	259.774
0.129569	260.523
0.130317	261.274
0.131069	262.027
0.131826	262.782
0.132587	263.54
0.133352	264.299
0.134122	265.061
0.134896	265.825
0.135675	266.591
0.136458	267.36
0.137246	268.13
0.138038	268.903
0.138835	269.678
0.139637	270.456
0.140443	271.235
0.141254	272.017
0.142069	272.801
0.142889	273.587
0.143714	274.376
0.144544	275.167
0.145378	275.96
0.146218	276.755
0.147062	277.553
0.147911	278.353
0.148765	279.155
0.149624	279.96
0.150487	280.767
0.151356	281.576
0.15223	282.388
0.153109	283.202
0.153993	284.018
0.154882	284.837
0.155776	285.658
0.156675	286.481
0.15758	287.307
0.158489	288.135
0.159404	288.965
0.160325	289.798
0.16125	290.634
0.162181	291.471
0.163117	292.311
0.164059	293.154
0.165006	293.999
0.165959	294.846
0.166917	295.696
0.16788	296.549
0.16885	297.403
0.169824	298.261
0.170805	299.12
0.171791	299.982
0.172783	300.847
0.17378	301.714
0.174783	302.584
0.175792	303.456
0.176807	304.331
0.177828	305.208
0.178855	306.088
0.179887	306.97
0.180926	307.855
0.18197	308.742
0.183021	309.632
0.184077	310.524
0.18514	311.42
0.186209	312.317
0.187284	313.217
0.188365	314.12
0.189452	315.026
0.190546	315.934
0.191646	316.844
0.192752	317.758
0.193865	318.673
0.194984	319.592
0.19611	320.513
0.197242	321.437
0.198381	322.363
0.199526	323.293
0.200678	324.225
0.201837	325.159
0.203002	326.096
0.204174	327.036
0.205353	327.979
0.206538	328.924
0.20773	329.872
0.20893	330.823
0.210136	331.777
0.211349	332.733
0.212569	333.692
0.213796	334.654
0.21503	335.618
0.216272	336.586
0.21752	337.556
0.218776	338.529
0.220039	339.505
0.221309	340.483
0.222587	341.465
0.223872	342.449
0.225165	343.436
0.226464	344.426
0.227772	345.419
0.229087	346.414
0.230409	347.413
0.231739	348.414
0.233077	349.418
0.234423	350.426
0.235776	351.436
0.237137	352.449
0.238506	353.465
0.239883	354.483
0.241268	355.505
0.242661	356.53
0.244062	357.557
0.245471	358.588
0.246888	359.622
0.248313	360.658
0.249747	361.698
0.251189	362.74
0.252639	363.786
0.254097	364.834
0.255564	365.886
0.25704	366.941
0.258523	367.998
0.260016	369.059
0.261517	370.123
0.263027	371.19
0.264545	372.26
0.266073	373.333
0.267609	374.409
0.269153	375.488
0.270707	376.57
0.27227	377.656
0.273842	378.744
0.275423	379.836
0.277013	380.931
0.278612	382.029
0.280221	383.13
0.281838	384.234
0.283465	385.342
0.285102	386.452
0.286748	387.566
0.288403	388.683
0.290068	389.804
0.291743	390.927
0.293427	392.054
0.295121	393.184
0.296825	394.317
0.298538	395.454
0.300262	396.594
0.301995	397.737
0.303739	398.883
0.305492	400.033
0.307256	401.186
0.30903	402.342
0.310814	403.502
0.312608	404.665
0.314413	405.832
0.316228	407.001
0.318053	408.174
0.31989	409.351
0.321736	410.531
0.323594	411.714
0.325462	412.901
0.327341	414.091
0.32923	415.285
0.331131	416.482
0.333043	417.682
0.334965	418.886
0.336899	420.093
0.338844	421.304
0.3408	422.519
0.342768	423.736
0.344747	424.958
0.346737	426.183
0.348739	427.411
0.350752	428.643
0.352777	429.879
0.354813	431.118
0.356862	432.36
0.358922	433.607
0.360994	434.856
0.363078	436.11
0.365174	437.367
0.367282	438.627
0.369403	439.892
0.371535	441.16
0.37368	442.431
0.375837	443.707
0.378007	444.985
0.380189	446.268
0.382384	447.554
0.384592	448.844
0.386812	450.138
0.389045	451.436
0.391291	452.737
0.39355	454.042
0.395822	455.351
0.398107	456.663
0.400405	457.979
0.402717	459.299
0.405042	460.623
0.40738	461.951
0.409732	463.282
0.412098	464.618
0.414477	465.957
0.416869	467.3
0.419276	468.647
0.421697	469.998
0.424131	471.353
0.42658	472.711
0.429042	474.074
0.431519	475.44
0.43401	476.811
0.436516	478.185
0.439036	479.563
0.44157	480.945
0.44412	482.332
0.446684	483.722
0.449262	485.116
0.451856	486.515
0.454465	487.917
0.457088	489.323
0.459727	490.734
0.462381	492.148
0.46505	493.567
0.467735	494.989
0.470435	496.416
0.473151	497.847
0.475883	499.282
0.47863	500.721
0.481393	502.164
0.484172	503.612
0.486968	505.063
0.489779	506.519
0.492606	507.979
0.49545	509.443
0.49831	510.912
0.501187	512.384
0.504081	513.861
0.506991	515.342
0.509918	516.828
0.512861	518.317
0.515822	519.811
0.5188	521.31
0.521795	522.812
0.524807	524.319
0.527837	525.831
0.530884	527.346
0.533949	528.866
0.537032	530.391
0.540132	531.919
0.54325	533.453
0.546387	534.99
0.549541	536.532
0.552713	538.079
0.555904	539.63
0.559114	541.185
0.562341	542.745
0.565588	544.309
0.568853	545.878
0.572137	547.452
0.57544	549.03
0.578762	550.612
0.582103	552.199
0.585464	553.791
0.588844	555.387
0.592243	556.988
0.595662	558.593
0.599101	560.204
0.60256	561.818
0.606038	563.438
