Stopping power dEdx from Ionisation for Ti48[0.0] Z = 22 in G4_Si, process name: ionIoni
E [MeV]	dEdx [MeV/mm]
0.001	29.5433
0.00100577	29.6291
0.00101158	29.7151
0.00101742	29.8014
0.00102329	29.8879
0.0010292	29.9747
0.00103514	30.0617
0.00104112	30.149
0.00104713	30.2366
0.00105317	30.3244
0.00105925	30.4124
0.00106537	30.5007
0.00107152	30.5893
0.00107771	30.6781
0.00108393	30.7671
0.00109018	30.8565
0.00109648	30.946
0.00110281	31.0359
0.00110917	31.126
0.00111558	31.2163
0.00112202	31.3069
0.0011285	31.3978
0.00113501	31.4889
0.00114156	31.5804
0.00114815	31.672
0.00115478	31.7639
0.00116145	31.8561
0.00116815	31.9486
0.0011749	32.0413
0.00118168	32.1343
0.0011885	32.2276
0.00119536	32.3211
0.00120226	32.4149
0.00120921	32.509
0.00121619	32.6033
0.00122321	32.6979
0.00123027	32.7928
0.00123737	32.888
0.00124451	32.9834
0.0012517	33.0791
0.00125893	33.1751
0.00126619	33.2714
0.0012735	33.3679
0.00128086	33.4647
0.00128825	33.5618
0.00129569	33.6592
0.00130317	33.7569
0.00131069	33.8548
0.00131826	33.953
0.00132587	34.0515
0.00133352	34.1503
0.00134122	34.2494
0.00134896	34.3487
0.00135675	34.4484
0.00136458	34.5483
0.00137246	34.6485
0.00138038	34.749
0.00138835	34.8498
0.00139637	34.9509
0.00140443	35.0523
0.00141254	35.154
0.00142069	35.2559
0.00142889	35.3582
0.00143714	35.4608
0.00144544	35.5636
0.00145378	35.6668
0.00146218	35.7702
0.00147062	35.8739
0.00147911	35.978
0.00148765	36.0823
0.00149624	36.187
0.00150487	36.2919
0.00151356	36.3972
0.0015223	36.5027
0.00153109	36.6086
0.00153993	36.7147
0.00154882	36.8212
0.00155776	36.9279
0.00156675	37.035
0.0015758	37.1424
0.00158489	37.2501
0.00159404	37.3581
0.00160325	37.4664
0.0016125	37.5751
0.00162181	37.684
0.00163117	37.7933
0.00164059	37.9028
0.00165006	38.0127
0.00165959	38.1229
0.00166917	38.2335
0.0016788	38.3443
0.0016885	38.4555
0.00169824	38.5669
0.00170805	38.6787
0.00171791	38.7909
0.00172783	38.9033
0.0017378	39.0161
0.00174783	39.1292
0.00175792	39.2426
0.00176807	39.3564
0.00177828	39.4704
0.00178855	39.5848
0.00179887	39.6996
0.00180926	39.8147
0.0018197	39.9301
0.00183021	40.0458
0.00184077	40.1619
0.0018514	40.2783
0.00186209	40.395
0.00187284	40.5121
0.00188365	40.6295
0.00189452	40.7472
0.00190546	40.8653
0.00191646	40.9837
0.00192752	41.1025
0.00193865	41.2216
0.00194984	41.3411
0.0019611	41.4609
0.00197242	41.581
0.00198381	41.7015
0.00199526	41.8223
0.00200678	41.9435
0.00201837	42.0651
0.00203002	42.1869
0.00204174	42.3092
0.00205353	42.4318
0.00206538	42.5547
0.0020773	42.678
0.0020893	42.8017
0.00210136	42.9257
0.00211349	43.05
0.00212569	43.1748
0.00213796	43.2998
0.0021503	43.4253
0.00216272	43.5511
0.0021752	43.6773
0.00218776	43.8038
0.00220039	43.9307
0.00221309	44.058
0.00222587	44.1856
0.00223872	44.3136
0.00225165	44.442
0.00226464	44.5707
0.00227772	44.6998
0.00229087	44.8293
0.00230409	44.9591
0.00231739	45.0894
0.00233077	45.22
0.00234423	45.3509
0.00235776	45.4823
0.00237137	45.614
0.00238506	45.7462
0.00239883	45.8786
0.00241268	46.0115
0.00242661	46.1448
0.00244062	46.2784
0.00245471	46.4125
0.00246888	46.5469
0.00248313	46.6817
0.00249747	46.8169
0.00251189	46.9525
0.00252639	47.0884
0.00254097	47.2248
0.00255564	47.3616
0.0025704	47.4987
0.00258523	47.6363
0.00260016	47.7742
0.00261517	47.9125
0.00263027	48.0513
0.00264545	48.1904
0.00266073	48.33
0.00267609	48.4699
0.00269153	48.6103
0.00270707	48.751
0.0027227	48.8922
0.00273842	49.0337
0.00275423	49.1757
0.00277013	49.3181
0.00278612	49.4609
0.00280221	49.6041
0.00281838	49.7477
0.00283465	49.8917
0.00285102	50.0362
0.00286748	50.181
0.00288403	50.3263
0.00290068	50.472
0.00291743	50.6181
0.00293427	50.7647
0.00295121	50.9116
0.00296825	51.059
0.00298538	51.2068
0.00300262	51.3551
0.00301995	51.5037
0.00303739	51.6528
0.00305492	51.8023
0.00307256	51.9523
0.0030903	52.1027
0.00310814	52.2535
0.00312608	52.4047
0.00314413	52.5564
0.00316228	52.7086
0.00318053	52.8611
0.0031989	53.0141
0.00321736	53.1676
0.00323594	53.3215
0.00325462	53.4758
0.00327341	53.6306
0.0032923	53.7858
0.00331131	53.9414
0.00333043	54.0976
0.00334965	54.2541
0.00336899	54.4112
0.00338844	54.5686
0.003408	54.7266
0.00342768	54.8849
0.00344747	55.0438
0.00346737	55.2031
0.00348739	55.3628
0.00350752	55.523
0.00352777	55.6837
0.00354813	55.8449
0.00356862	56.0065
0.00358922	56.1685
0.00360994	56.3311
0.00363078	56.4941
0.00365174	56.6575
0.00367282	56.8215
0.00369403	56.9859
0.00371535	57.1508
0.0037368	57.3162
0.00375837	57.482
0.00378007	57.6483
0.00380189	57.8151
0.00382384	57.9824
0.00384592	58.1502
0.00386812	58.3184
0.00389045	58.4872
0.00391291	58.6564
0.0039355	58.8261
0.00395822	58.9963
0.00398107	59.167
0.00400405	59.3382
0.00402717	59.5098
0.00405042	59.682
0.0040738	59.8547
0.00409732	60.0278
0.00412098	60.2015
0.00414477	60.3757
0.00416869	60.5503
0.00419276	60.7255
0.00421697	60.9012
0.00424131	61.0773
0.0042658	61.254
0.00429042	61.4312
0.00431519	61.6089
0.0043401	61.7872
0.00436516	61.9659
0.00439036	62.1451
0.0044157	62.3249
0.0044412	62.5052
0.00446684	62.686
0.00449262	62.8673
0.00451856	63.0491
0.00454465	63.2315
0.00457088	63.4144
0.00459727	63.5978
0.00462381	63.7818
0.0046505	63.9663
0.00467735	64.1513
0.00470435	64.3368
0.00473151	64.5229
0.00475883	64.7095
0.0047863	64.8967
0.00481393	65.0844
0.00484172	65.2726
0.00486968	65.4614
0.00489779	65.6507
0.00492606	65.8406
0.0049545	66.031
0.0049831	66.222
0.00501187	66.4135
0.00504081	66.6055
0.00506991	66.7982
0.00509918	66.9913
0.00512861	67.1851
0.00515822	67.3794
0.005188	67.5742
0.00521795	67.7696
0.00524807	67.9656
0.00527837	68.1622
0.00530884	68.3593
0.00533949	68.5569
0.00537032	68.7552
0.00540132	68.954
0.0054325	69.1534
0.00546387	69.3534
0.00549541	69.5539
0.00552713	69.755
0.00555904	69.9567
0.00559114	70.159
0.00562341	70.3619
0.00565588	70.5653
0.00568853	70.7693
0.00572137	70.974
0.0057544	71.1792
0.00578762	71.385
0.00582103	71.5914
0.00585464	71.7984
0.00588844	72.0059
0.00592243	72.2141
0.00595662	72.4229
0.00599101	72.6323
0.0060256	72.8423
0.00606038	73.0529
0.00609537	73.2641
0.00613056	73.4759
0.00616595	73.6883
0.00620155	73.9014
0.00623735	74.115
0.00627336	74.3293
0.00630957	74.5442
0.006346	74.7597
0.00638263	74.9758
0.00641948	75.1926
0.00645654	75.4099
0.00649382	75.6279
0.00653131	75.8465
0.00656901	76.0658
0.00660693	76.2857
0.00664508	76.5062
0.00668344	76.7274
0.00672202	76.9492
0.00676083	77.1716
0.00679986	77.3947
0.00683912	77.6184
0.0068786	77.8428
0.00691831	78.0678
0.00695825	78.2934
0.00699842	78.5197
0.00703882	78.7467
0.00707946	78.9743
0.00712033	79.2026
0.00716143	79.4315
0.00720278	79.6611
0.00724436	79.8914
0.00728618	80.1223
0.00732825	80.3539
0.00737055	80.5861
0.0074131	80.819
0.0074559	81.0526
0.00749894	81.2869
0.00754223	81.5218
0.00758578	81.7574
0.00762957	81.9937
0.00767361	82.2307
0.00771792	82.4684
0.00776247	82.7067
0.00780728	82.9457
0.00785236	83.1855
0.00789769	83.4259
0.00794328	83.667
0.00798914	83.9088
0.00803526	84.1513
0.00808165	84.3945
0.00812831	84.6384
0.00817523	84.8829
0.00822243	85.1283
0.0082699	85.3743
0.00831764	85.621
0.00836566	85.8684
0.00841395	86.1166
0.00846253	86.3654
0.00851138	86.615
0.00856052	86.8653
0.00860994	87.1163
0.00865964	87.368
0.00870964	87.6205
0.00875992	87.8737
0.00881049	88.1276
0.00886135	88.3823
0.00891251	88.6377
0.00896396	88.8938
0.00901571	89.1507
0.00906776	89.4083
0.00912011	90.9718
0.00917276	91.2337
0.00922571	91.4964
0.00927897	91.7598
0.00933254	92.024
0.00938642	92.2889
0.00944061	92.5546
0.00949511	92.8211
0.00954993	93.0883
0.00960506	93.3563
0.00966051	93.625
0.00971628	93.8946
0.00977237	94.1649
0.00982879	94.436
0.00988553	94.7078
0.0099426	94.9805
0.01	95.2539
0.0100577	95.5281
0.0101158	95.8031
0.0101742	96.0789
0.0102329	96.3555
0.010292	96.6329
0.0103514	96.9111
0.0104112	97.1901
0.0104713	97.4699
0.0105317	97.7505
0.0105925	98.0319
0.0106537	98.3141
0.0107152	98.5971
0.0107771	98.8809
0.0108393	99.1656
0.0109018	99.451
0.0109648	99.7373
0.0110281	100.024
0.0110917	100.312
0.0111558	100.601
0.0112202	100.891
0.011285	101.181
0.0113501	101.472
0.0114156	101.765
0.0114815	102.057
0.0115478	102.351
0.0116145	102.646
0.0116815	102.941
0.011749	103.238
0.0118168	103.535
0.011885	103.833
0.0119536	104.132
0.0120226	104.431
0.0120921	104.732
0.0121619	105.034
0.0122321	105.336
0.0123027	105.639
0.0123737	105.943
0.0124451	106.248
0.012517	106.554
0.0125893	106.861
0.0126619	107.168
0.012735	107.477
0.0128086	107.786
0.0128825	108.096
0.0129569	108.407
0.0130317	108.72
0.0131069	109.032
0.0131826	109.346
0.0132587	109.661
0.0133352	109.977
0.0134122	110.293
0.0134896	110.611
0.0135675	110.929
0.0136458	111.248
0.0137246	111.568
0.0138038	111.89
0.0138835	112.212
0.0139637	112.535
0.0140443	112.859
0.0141254	113.183
0.0142069	113.509
0.0142889	113.836
0.0143714	114.163
0.0144544	114.492
0.0145378	114.822
0.0146218	115.152
0.0147062	115.483
0.0147911	115.816
0.0148765	116.149
0.0149624	116.483
0.0150487	116.819
0.0151356	117.155
0.015223	117.492
0.0153109	117.83
0.0153993	118.169
0.0154882	118.509
0.0155776	118.85
0.0156675	119.192
0.015758	119.536
0.0158489	119.88
0.0159404	120.225
0.0160325	120.571
0.016125	120.918
0.0162181	121.265
0.0163117	121.614
0.0164059	121.964
0.0165006	122.315
0.0165959	122.667
0.0166917	123.02
0.016788	123.375
0.016885	123.73
0.0169824	124.086
0.0170805	124.443
0.0171791	124.801
0.0172783	125.16
0.017378	125.52
0.0174783	125.881
0.0175792	126.244
0.0176807	126.607
0.0177828	126.971
0.0178855	127.337
0.0179887	127.703
0.0180926	128.071
0.018197	128.439
0.0183021	128.809
0.0184077	129.179
0.018514	129.551
0.0186209	129.924
0.0187284	130.298
0.0188365	130.673
0.0189452	131.049
0.0190546	131.426
0.0191646	131.804
0.0192752	132.183
0.0193865	132.564
0.0194984	132.945
0.019611	133.328
0.0197242	133.711
0.0198381	134.096
0.0199526	134.482
0.0200678	134.869
0.0201837	135.257
0.0203002	135.646
0.0204174	136.036
0.0205353	136.428
0.0206538	136.82
0.020773	137.214
0.020893	137.609
0.0210136	138.005
0.0211349	138.402
0.0212569	138.8
0.0213796	139.199
0.021503	139.6
0.0216272	140.001
0.021752	140.404
0.0218776	140.808
0.0220039	141.213
0.0221309	141.62
0.0222587	142.027
0.0223872	142.436
0.0225165	142.845
0.0226464	143.256
0.0227772	143.669
0.0229087	144.082
0.0230409	144.496
0.0231739	144.912
0.0233077	145.329
0.0234423	145.747
0.0235776	146.167
0.0237137	146.587
0.0238506	147.009
0.0239883	147.432
0.0241268	147.856
0.0242661	148.281
0.0244062	148.708
0.0245471	149.136
0.0246888	149.565
0.0248313	149.995
0.0249747	150.426
0.0251189	150.859
0.0252639	151.293
0.0254097	151.728
0.0255564	152.165
0.025704	152.603
0.0258523	153.042
0.0260016	153.482
0.0261517	153.923
0.0263027	154.366
0.0264545	154.81
0.0266073	155.256
0.0267609	155.702
0.0269153	156.15
0.0270707	156.599
0.027227	157.05
0.0273842	157.501
0.0275423	157.954
0.0277013	158.409
0.0278612	158.864
0.0280221	159.321
0.0281838	159.78
0.0283465	160.239
0.0285102	160.7
0.0286748	161.162
0.0288403	161.626
0.0290068	162.091
0.0291743	162.557
0.0293427	163.025
0.0295121	163.494
0.0296825	163.964
0.0298538	164.436
0.0300262	164.908
0.0301995	165.383
0.0303739	165.858
0.0305492	166.336
0.0307256	166.814
0.030903	167.294
0.0310814	167.775
0.0312608	168.257
0.0314413	168.741
0.0316228	169.227
0.0318053	169.713
0.031989	170.202
0.0321736	170.691
0.0323594	171.182
0.0325462	171.674
0.0327341	172.168
0.032923	172.663
0.0331131	173.16
0.0333043	173.658
0.0334965	174.157
0.0336899	174.658
0.0338844	175.16
0.03408	175.664
0.0342768	176.169
0.0344747	176.676
0.0346737	177.184
0.0348739	177.693
0.0350752	178.205
0.0352777	178.717
0.0354813	179.231
0.0356862	179.746
0.0358922	180.263
0.0360994	180.782
0.0363078	181.301
0.0365174	181.823
0.0367282	182.346
0.0369403	182.87
0.0371535	183.396
0.037368	183.923
0.0375837	184.452
0.0378007	184.983
0.0380189	185.514
0.0382384	186.048
0.0384592	186.583
0.0386812	187.119
0.0389045	187.657
0.0391291	188.197
0.039355	188.738
0.0395822	189.281
0.0398107	189.825
0.0400405	190.371
0.0402717	190.918
0.0405042	191.467
0.040738	192.018
0.0409732	192.57
0.0412098	193.124
0.0414477	193.679
0.0416869	194.236
0.0419276	194.794
0.0421697	195.354
0.0424131	195.916
0.042658	196.479
0.0429042	197.044
0.0431519	197.611
0.043401	198.179
0.0436516	198.748
0.0439036	199.32
0.044157	199.893
0.044412	200.468
0.0446684	201.044
0.0449262	201.622
0.0451856	202.202
0.0454465	202.783
0.0457088	203.366
0.0459727	203.95
0.0462381	204.537
0.046505	205.125
0.0467735	205.714
0.0470435	206.306
0.0473151	206.899
0.0475883	207.494
0.047863	208.09
0.0481393	208.688
0.0484172	209.288
0.0486968	209.89
0.0489779	210.493
0.0492606	211.098
0.049545	211.705
0.049831	212.314
0.0501187	212.924
0.0504081	213.536
0.0506991	214.15
0.0509918	214.765
0.0512861	215.383
0.0515822	216.002
0.05188	216.623
0.0521795	217.245
0.0524807	217.87
0.0527837	218.496
0.0530884	219.124
0.0533949	219.754
0.0537032	220.385
0.0540132	221.019
0.054325	221.654
0.0546387	222.291
0.0549541	222.93
0.0552713	223.571
0.0555904	224.213
0.0559114	224.858
0.0562341	225.504
0.0565588	226.152
0.0568853	226.802
0.0572137	227.454
0.057544	228.108
0.0578762	228.763
0.0582103	229.421
0.0585464	230.08
0.0588844	230.741
0.0592243	231.404
0.0595662	232.069
0.0599101	232.736
0.060256	233.405
0.0606038	234.076
0.0609537	234.748
0.0613056	235.423
0.0616595	236.099
0.0620155	236.778
0.0623735	237.458
0.0627336	238.141
0.0630957	238.825
0.06346	239.511
0.0638263	240.199
0.0641948	240.89
0.0645654	241.582
0.0649382	242.276
0.0653131	242.972
0.0656901	243.67
0.0660693	244.37
0.0664508	245.073
0.0668344	245.777
0.0672202	246.483
0.0676083	247.191
0.0679986	247.901
0.0683912	248.614
0.068786	249.328
0.0691831	250.044
0.0695825	250.763
0.0699842	251.483
0.0703882	252.206
0.0707946	252.93
0.0712033	253.657
0.0716143	254.386
0.0720278	255.117
0.0724436	255.85
0.0728618	256.585
0.0732825	257.322
0.0737055	258.061
0.074131	258.802
0.074559	259.546
0.0749894	260.291
0.0754223	261.039
0.0758578	261.789
0.0762957	262.541
0.0767361	263.295
0.0771792	264.052
0.0776247	264.81
0.0780728	265.571
0.0785236	266.334
0.0789769	267.099
0.0794328	267.866
0.0798914	268.635
0.0803526	269.407
0.0808165	270.181
0.0812831	270.957
0.0817523	271.735
0.0822243	272.516
0.082699	273.298
0.0831764	274.083
0.0836566	274.871
0.0841395	275.66
0.0846253	276.452
0.0851138	277.246
0.0856052	278.042
0.0860994	278.841
0.0865964	279.642
0.0870964	280.445
0.0875992	281.25
0.0881049	282.058
0.0886135	282.868
0.0891251	283.68
0.0896396	284.495
0.0901571	285.312
0.0906776	286.131
0.0912011	286.953
0.0917276	287.777
0.0922571	288.604
0.0927897	289.432
0.0933254	290.263
0.0938642	291.097
0.0944061	291.933
0.0949511	292.771
0.0954993	293.612
0.0960506	294.455
0.0966051	295.301
0.0971628	296.149
0.0977237	296.999
0.0982879	297.852
0.0988553	298.707
0.099426	299.565
0.1	300.425
0.100577	301.287
0.101158	302.152
0.101742	303.02
0.102329	303.89
0.10292	304.762
0.103514	305.637
0.104112	306.515
0.104713	307.395
0.105317	308.277
0.105925	309.163
0.106537	310.05
0.107152	310.94
0.107771	311.833
0.108393	312.728
0.109018	313.626
0.109648	314.526
0.110281	315.429
0.110917	316.335
0.111558	317.243
0.112202	318.153
0.11285	319.067
0.113501	319.983
0.114156	320.901
0.114815	321.822
0.115478	322.746
0.116145	323.673
0.116815	324.602
0.11749	325.533
0.118168	326.468
0.11885	327.405
0.119536	328.345
0.120226	329.287
0.120921	330.232
0.121619	331.18
0.122321	332.13
0.123027	333.084
0.123737	334.04
0.124451	334.998
0.12517	335.96
0.125893	336.924
0.126619	337.891
0.12735	338.861
0.128086	339.833
0.128825	340.808
0.129569	341.786
0.130317	342.767
0.131069	343.751
0.131826	344.737
0.132587	345.727
0.133352	346.719
0.134122	347.714
0.134896	348.711
0.135675	349.712
0.136458	350.716
0.137246	351.722
0.138038	352.731
0.138835	353.743
0.139637	354.758
0.140443	355.776
0.141254	356.797
0.142069	357.821
0.142889	358.847
0.143714	359.877
0.144544	360.909
0.145378	361.945
0.146218	362.983
0.147062	364.025
0.147911	365.069
0.148765	366.116
0.149624	367.167
0.150487	368.22
0.151356	369.276
0.15223	370.336
0.153109	371.398
0.153993	372.463
0.154882	373.532
0.155776	374.603
0.156675	375.678
0.15758	376.756
0.158489	377.836
0.159404	378.92
0.160325	380.007
0.16125	381.097
0.162181	382.19
0.163117	383.286
0.164059	384.386
0.165006	385.488
0.165959	386.594
0.166917	387.703
0.16788	388.814
0.16885	389.93
0.169824	391.048
0.170805	392.169
0.171791	393.294
0.172783	394.422
0.17378	395.553
0.174783	396.688
0.175792	397.825
0.176807	398.966
0.177828	400.11
0.178855	401.257
0.179887	402.408
0.180926	403.562
0.18197	404.719
0.183021	405.88
0.184077	407.043
0.18514	408.211
0.186209	409.381
0.187284	410.555
0.188365	411.732
0.189452	412.913
0.190546	414.096
0.191646	415.284
0.192752	416.474
0.193865	417.668
0.194984	418.866
0.19611	420.067
0.197242	421.271
0.198381	422.479
0.199526	423.69
0.200678	424.904
0.201837	426.122
0.203002	427.344
0.204174	428.569
0.205353	429.798
0.206538	431.03
0.20773	432.265
0.20893	433.504
0.210136	434.747
0.211349	435.993
0.212569	437.243
0.213796	438.496
0.21503	439.753
0.216272	441.013
0.21752	442.277
0.218776	443.545
0.220039	444.816
0.221309	446.091
0.222587	447.369
0.223872	448.651
0.225165	449.937
0.226464	451.226
0.227772	452.52
0.229087	453.816
0.230409	455.117
0.231739	456.421
0.233077	457.729
0.234423	459.041
0.235776	460.356
0.237137	461.675
0.238506	462.998
0.239883	464.324
0.241268	465.655
0.242661	466.989
0.244062	468.327
0.245471	469.669
0.246888	471.015
0.248313	472.364
0.249747	473.717
0.251189	475.074
0.252639	476.435
0.254097	477.8
0.255564	479.169
0.25704	480.542
0.258523	481.918
0.260016	483.299
0.261517	484.683
0.263027	486.072
0.264545	487.464
0.266073	488.86
0.267609	490.261
0.269153	491.665
0.270707	493.073
0.27227	494.486
0.273842	495.902
0.275423	497.322
0.277013	498.747
0.278612	500.175
0.280221	501.607
0.281838	503.044
0.283465	504.485
0.285102	505.929
0.286748	507.378
0.288403	508.831
0.290068	510.288
0.291743	511.75
0.293427	513.215
0.295121	514.685
0.296825	516.158
0.298538	517.636
0.300262	519.118
0.301995	520.605
0.303739	522.095
0.305492	523.59
0.307256	525.089
0.30903	526.593
0.310814	528.1
0.312608	529.612
0.314413	531.129
0.316228	532.649
0.318053	534.174
0.31989	535.703
0.321736	537.237
0.323594	538.775
0.325462	540.317
0.327341	541.863
0.32923	543.415
0.331131	544.97
0.333043	546.53
0.334965	548.094
0.336899	549.663
0.338844	551.236
0.3408	552.814
0.342768	554.396
0.344747	555.983
0.346737	557.574
0.348739	559.17
0.350752	560.77
0.352777	562.375
0.354813	563.984
0.356862	565.598
0.358922	567.216
0.360994	568.84
0.363078	570.467
0.365174	572.1
0.367282	573.737
0.369403	575.378
0.371535	577.025
0.37368	578.675
0.375837	580.331
0.378007	581.992
0.380189	583.657
0.382384	585.326
0.384592	587.001
0.386812	588.68
0.389045	590.364
0.391291	592.053
0.39355	593.747
0.395822	595.445
0.398107	597.149
0.400405	598.857
0.402717	600.57
0.405042	602.287
0.40738	604.01
0.409732	605.738
0.412098	607.47
0.414477	609.208
0.416869	610.95
0.419276	612.697
0.421697	614.449
0.424131	616.207
0.42658	617.969
0.429042	619.736
0.431519	621.508
0.43401	623.286
0.436516	625.068
0.439036	626.855
0.44157	628.648
0.44412	630.445
0.446684	632.248
0.449262	634.055
0.451856	635.868
0.454465	637.686
0.457088	639.509
0.459727	641.338
0.462381	643.171
0.46505	645.01
0.467735	646.854
0.470435	648.703
0.473151	650.557
0.475883	652.417
0.47863	654.282
0.481393	656.152
0.484172	658.028
0.486968	659.908
0.489779	661.794
0.492606	663.686
0.49545	665.583
0.49831	667.485
0.501187	669.393
0.504081	671.306
0.506991	673.224
0.509918	675.148
0.512861	677.077
0.515822	679.012
0.5188	680.952
0.521795	682.898
0.524807	684.849
0.527837	686.806
0.530884	688.769
0.533949	690.736
0.537032	692.71
0.540132	694.689
0.54325	696.674
0.546387	698.664
0.549541	700.66
0.552713	702.662
0.555904	704.669
0.559114	706.682
0.562341	708.7
0.565588	710.725
0.568853	712.755
0.572137	714.791
0.57544	716.832
0.578762	718.88
0.582103	720.933
0.585464	722.992
0.588844	725.057
0.592243	727.127
0.595662	729.204
0.599101	731.286
0.60256	733.374
0.606038	735.469
0.609537	737.569
0.613056	739.675
