Stopping power dEdx from Ionisation for triton Z = 1 in G4_TISSUE_SOFT_ICRP, process name: hIoni
E [MeV]	dEdx [MeV/mm]
0.001	9.98455
0.00100577	10.0133
0.00101158	10.0422
0.00101742	10.0711
0.00102329	10.1002
0.0010292	10.1293
0.00103514	10.1585
0.00104112	10.1878
0.00104713	10.2171
0.00105317	10.2466
0.00105925	10.2761
0.00106537	10.3057
0.00107152	10.3354
0.00107771	10.3652
0.00108393	10.3951
0.00109018	10.4251
0.00109648	10.4551
0.00110281	10.4852
0.00110917	10.5155
0.00111558	10.5458
0.00112202	10.5762
0.0011285	10.6067
0.00113501	10.6372
0.00114156	10.6679
0.00114815	10.6986
0.00115478	10.7295
0.00116145	10.7604
0.00116815	10.7914
0.0011749	10.8225
0.00118168	10.8537
0.0011885	10.885
0.00119536	10.9164
0.00120226	10.9478
0.00120921	10.9794
0.00121619	11.011
0.00122321	11.0428
0.00123027	11.0746
0.00123737	11.1065
0.00124451	11.1385
0.0012517	11.1707
0.00125893	11.2029
0.00126619	11.2351
0.0012735	11.2675
0.00128086	11.3
0.00128825	11.3326
0.00129569	11.3652
0.00130317	11.398
0.00131069	11.4309
0.00131826	11.4638
0.00132587	11.4968
0.00133352	11.53
0.00134122	11.5632
0.00134896	11.5965
0.00135675	11.63
0.00136458	11.6635
0.00137246	11.6971
0.00138038	11.7308
0.00138835	11.7646
0.00139637	11.7986
0.00140443	11.8326
0.00141254	11.8667
0.00142069	11.9009
0.00142889	11.9352
0.00143714	11.9696
0.00144544	12.0041
0.00145378	12.0387
0.00146218	12.0734
0.00147062	12.1082
0.00147911	12.1431
0.00148765	12.1781
0.00149624	12.2132
0.00150487	12.2484
0.00151356	12.2837
0.0015223	12.3191
0.00153109	12.3546
0.00153993	12.3902
0.00154882	12.4259
0.00155776	12.4617
0.00156675	12.4977
0.0015758	12.5337
0.00158489	12.5698
0.00159404	12.606
0.00160325	12.6424
0.0016125	12.6788
0.00162181	12.7154
0.00163117	12.752
0.00164059	12.7888
0.00165006	12.8256
0.00165959	12.8626
0.00166917	12.8997
0.0016788	12.9369
0.0016885	12.9741
0.00169824	13.0115
0.00170805	13.049
0.00171791	13.0867
0.00172783	13.1244
0.0017378	13.1622
0.00174783	13.2001
0.00175792	13.2382
0.00176807	13.2763
0.00177828	13.3146
0.00178855	13.353
0.00179887	13.3915
0.00180926	13.4301
0.0018197	13.4688
0.00183021	13.5076
0.00184077	13.5465
0.0018514	13.5856
0.00186209	13.6248
0.00187284	13.664
0.00188365	13.7034
0.00189452	13.7429
0.00190546	13.7825
0.00191646	13.8222
0.00192752	13.8621
0.00193865	13.902
0.00194984	13.9421
0.0019611	13.9823
0.00197242	14.0226
0.00198381	14.063
0.00199526	14.1036
0.00200678	14.1442
0.00201837	14.185
0.00203002	14.2259
0.00204174	14.2669
0.00205353	14.308
0.00206538	14.3492
0.0020773	14.3906
0.0020893	14.4321
0.00210136	14.4737
0.00211349	14.5154
0.00212569	14.5572
0.00213796	14.5992
0.0021503	14.6413
0.00216272	14.6835
0.0021752	14.7258
0.00218776	14.7682
0.00220039	14.8108
0.00221309	14.8535
0.00222587	14.8963
0.00223872	14.9392
0.00225165	14.9823
0.00226464	15.0255
0.00227772	15.0688
0.00229087	15.1122
0.00230409	15.1558
0.00231739	15.1995
0.00233077	15.2433
0.00234423	15.2872
0.00235776	15.3313
0.00237137	15.3755
0.00238506	15.4198
0.00239883	15.4642
0.00241268	15.5088
0.00242661	15.5535
0.00244062	15.5983
0.00245471	15.6433
0.00246888	15.6884
0.00248313	15.7336
0.00249747	15.779
0.00251189	15.8245
0.00252639	15.8701
0.00254097	15.9158
0.00255564	15.9617
0.0025704	16.0077
0.00258523	16.0538
0.00260016	16.1001
0.00261517	16.1465
0.00263027	16.1931
0.00264545	16.2397
0.00266073	16.2865
0.00267609	16.3335
0.00269153	16.3806
0.00270707	16.4278
0.0027227	16.4751
0.00273842	16.5226
0.00275423	16.5702
0.00277013	16.618
0.00278612	16.6659
0.00280221	16.7139
0.00281838	16.7621
0.00283465	16.8104
0.00285102	16.8589
0.00286748	16.9075
0.00288403	16.9562
0.00290068	17.0051
0.00291743	17.0541
0.00293427	17.1033
0.00295121	17.1525
0.00296825	17.202
0.00298538	17.2516
0.00300262	17.3013
0.00301995	17.3512
0.00303739	17.4012
0.00305492	17.4513
0.00307256	17.5016
0.0030903	17.5521
0.00310814	17.6027
0.00312608	17.6534
0.00314413	17.7043
0.00316228	17.7553
0.00318053	17.8065
0.0031989	17.8578
0.00321736	17.9093
0.00323594	17.9609
0.00325462	18.0127
0.00327341	18.0646
0.0032923	18.1167
0.00331131	18.1689
0.00333043	18.2213
0.00334965	18.2738
0.00336899	18.3265
0.00338844	18.3793
0.003408	18.4323
0.00342768	18.4854
0.00344747	18.5387
0.00346737	18.5921
0.00348739	18.6457
0.00350752	18.6994
0.00352777	18.7533
0.00354813	18.8074
0.00356862	18.8616
0.00358922	18.916
0.00360994	18.9705
0.00363078	19.0252
0.00365174	19.08
0.00367282	19.135
0.00369403	19.1902
0.00371535	19.2455
0.0037368	19.3009
0.00375837	19.3566
0.00378007	19.4124
0.00380189	19.4683
0.00382384	19.5244
0.00384592	19.5807
0.00386812	19.6372
0.00389045	19.6938
0.00391291	19.7505
0.0039355	19.8075
0.00395822	19.8645
0.00398107	19.9218
0.00400405	19.9792
0.00402717	20.0368
0.00405042	20.0946
0.0040738	20.1525
0.00409732	20.2106
0.00412098	20.2688
0.00414477	20.3273
0.00416869	20.3858
0.00419276	20.4446
0.00421697	20.5035
0.00424131	20.5626
0.0042658	20.6219
0.00429042	20.6813
0.00431519	20.741
0.0043401	20.8007
0.00436516	20.8607
0.00439036	20.9208
0.0044157	20.9811
0.0044412	21.0416
0.00446684	21.1022
0.00449262	21.1631
0.00451856	21.2241
0.00454465	21.2852
0.00457088	21.3466
0.00459727	21.4081
0.00462381	21.4698
0.0046505	21.5317
0.00467735	21.5938
0.00470435	21.656
0.00473151	21.7184
0.00475883	21.781
0.0047863	21.8438
0.00481393	21.9068
0.00484172	21.9699
0.00486968	22.0333
0.00489779	22.0968
0.00492606	22.1605
0.0049545	22.2243
0.0049831	22.2884
0.00501187	22.3526
0.00504081	22.4171
0.00506991	22.4817
0.00509918	22.5465
0.00512861	22.6115
0.00515822	22.6766
0.005188	22.742
0.00521795	22.8076
0.00524807	22.8733
0.00527837	22.9392
0.00530884	23.0053
0.00533949	23.0717
0.00537032	23.1382
0.00540132	23.2048
0.0054325	23.2717
0.00546387	23.3388
0.00549541	23.4061
0.00552713	23.4735
0.00555904	23.5412
0.00559114	23.6091
0.00562341	23.6771
0.00565588	23.7454
0.00568853	23.8138
0.00572137	23.8824
0.0057544	23.9513
0.00578762	24.0203
0.00582103	24.0895
0.00585464	24.159
0.00588844	24.2286
0.00592243	24.2985
0.00595662	24.3685
0.00599101	24.4387
0.0060256	24.5092
0.00606038	24.5798
0.00609537	24.6507
0.00613056	24.7217
0.00616595	24.793
0.00620155	24.8644
0.00623735	24.9361
0.00627336	25.008
0.00630957	25.0801
0.006346	25.1524
0.00638263	25.2249
0.00641948	25.2976
0.00645654	25.3705
0.00649382	25.4436
0.00653131	25.5169
0.00656901	25.5905
0.00660693	25.6643
0.00664508	25.7382
0.00668344	25.8124
0.00672202	25.8868
0.00676083	25.9614
0.00679986	26.0363
0.00683912	26.1113
0.0068786	26.1866
0.00691831	26.2621
0.00695825	26.3377
0.00699842	26.4137
0.00703882	26.4898
0.00707946	26.5662
0.00712033	26.6427
0.00716143	26.7195
0.00720278	26.7965
0.00724436	26.8738
0.00728618	26.9512
0.00732825	27.0289
0.00737055	27.1068
0.0074131	27.185
0.0074559	27.2633
0.00749894	27.3419
0.00754223	27.4207
0.00758578	27.4997
0.00762957	27.579
0.00767361	27.6585
0.00771792	27.7382
0.00776247	27.8182
0.00780728	27.8984
0.00785236	27.9788
0.00789769	28.0594
0.00794328	28.1403
0.00798914	28.2214
0.00803526	28.3028
0.00808165	28.3843
0.00812831	28.4661
0.00817523	28.5482
0.00822243	28.6305
0.0082699	28.713
0.00831764	28.7958
0.00836566	28.8788
0.00841395	28.962
0.00846253	29.0455
0.00851138	29.1292
0.00856052	29.2132
0.00860994	29.2974
0.00865964	29.3818
0.00870964	29.4665
0.00875992	29.5514
0.00881049	29.6366
0.00886135	29.722
0.00891251	29.8077
0.00896396	29.8936
0.00901571	29.9798
0.00906776	30.0662
0.00912011	30.1529
0.00917276	30.2398
0.00922571	30.3269
0.00927897	30.4144
0.00933254	30.502
0.00938642	30.5899
0.00944061	30.6781
0.00949511	30.7665
0.00954993	30.8552
0.00960506	30.9442
0.00966051	31.0333
0.00971628	31.1228
0.00977237	31.2125
0.00982879	31.3025
0.00988553	31.3927
0.0099426	31.4832
0.01	31.5739
0.0100577	31.6649
0.0101158	31.7562
0.0101742	31.8477
0.0102329	31.9395
0.010292	32.0316
0.0103514	32.1239
0.0104112	32.2165
0.0104713	32.3094
0.0105317	32.4025
0.0105925	32.4959
0.0106537	32.5896
0.0107152	32.6835
0.0107771	32.7777
0.0108393	32.8722
0.0109018	32.9669
0.0109648	33.062
0.0110281	33.1573
0.0110917	33.2528
0.0111558	33.3487
0.0112202	33.4448
0.011285	33.5412
0.0113501	33.6379
0.0114156	33.7348
0.0114815	33.8321
0.0115478	33.9296
0.0116145	34.0274
0.0116815	34.1255
0.011749	34.2238
0.0118168	34.3225
0.011885	34.4214
0.0119536	34.5206
0.0120226	34.6201
0.0120921	34.7199
0.0121619	34.82
0.0122321	34.9204
0.0123027	35.021
0.0123737	35.122
0.0124451	35.2232
0.012517	35.3247
0.0125893	35.4265
0.0126619	35.5286
0.012735	35.6311
0.0128086	35.7338
0.0128825	35.8368
0.0129569	35.94
0.0130317	36.0436
0.0131069	36.1475
0.0131826	36.2517
0.0132587	36.3562
0.0133352	36.461
0.0134122	36.5661
0.0134896	36.6715
0.0135675	36.7772
0.0136458	36.8832
0.0137246	36.9895
0.0138038	37.0961
0.0138835	37.2031
0.0139637	37.3103
0.0140443	37.4178
0.0141254	37.5257
0.0142069	37.6339
0.0142889	37.7423
0.0143714	37.8511
0.0144544	37.9602
0.0145378	38.0696
0.0146218	38.1794
0.0147062	38.2894
0.0147911	38.3998
0.0148765	38.5105
0.0149624	38.6215
0.0150487	38.7328
0.0151356	38.8444
0.015223	38.9564
0.0153109	39.0687
0.0153993	39.1813
0.0154882	39.2942
0.0155776	39.4075
0.0156675	39.5211
0.015758	39.635
0.0158489	39.7492
0.0159404	39.8638
0.0160325	39.9787
0.016125	40.0939
0.0162181	40.2095
0.0163117	40.3254
0.0164059	40.4416
0.0165006	40.5582
0.0165959	40.6751
0.0166917	40.7923
0.016788	40.9099
0.016885	41.0278
0.0169824	41.1461
0.0170805	41.2647
0.0171791	41.3836
0.0172783	41.5029
0.017378	41.6225
0.0174783	41.7425
0.0175792	41.8628
0.0176807	41.9835
0.0177828	42.1045
0.0178855	42.2259
0.0179887	42.3476
0.0180926	42.4696
0.018197	42.5921
0.0183021	42.7148
0.0184077	42.8379
0.018514	42.9614
0.0186209	43.0853
0.0187284	43.2094
0.0188365	43.334
0.0189452	43.4589
0.0190546	43.5842
0.0191646	43.7098
0.0192752	43.8358
0.0193865	43.9621
0.0194984	44.0888
0.019611	44.2159
0.0197242	44.3434
0.0198381	44.4712
0.0199526	44.5994
0.0200678	44.7279
0.0201837	44.8568
0.0203002	44.9861
0.0204174	45.1158
0.0205353	45.2458
0.0206538	45.3763
0.020773	45.507
0.020893	45.6382
0.0210136	45.7698
0.0211349	45.9017
0.0212569	46.034
0.0213796	46.1667
0.021503	46.2998
0.0216272	46.4332
0.021752	46.567
0.0218776	46.7013
0.0220039	46.8359
0.0221309	46.9709
0.0222587	47.1063
0.0223872	47.242
0.0225165	47.3782
0.0226464	47.5148
0.0227772	47.6517
0.0229087	47.7891
0.0230409	47.9268
0.0231739	48.065
0.0233077	48.2035
0.0234423	48.3425
0.0235776	48.4818
0.0237137	48.6215
0.0238506	48.7617
0.0239883	48.9022
0.0241268	49.0432
0.0242661	49.1845
0.0244062	49.3263
0.0245471	49.4685
0.0246888	49.6111
0.0248313	49.7541
0.0249747	49.8975
0.0251189	50.0413
0.0252639	50.1855
0.0254097	50.3302
0.0255564	50.4753
0.025704	50.6208
0.0258523	50.7667
0.0260016	50.913
0.0261517	51.0597
0.0263027	51.2069
0.0264545	51.3545
0.0266073	51.5025
0.0267609	51.651
0.0269153	51.7999
0.0270707	51.9492
0.027227	52.0989
0.0273842	52.2491
0.0275423	52.3997
0.0277013	52.5507
0.0278612	52.7022
0.0280221	52.8541
0.0281838	53.0064
0.0283465	53.1592
0.0285102	53.3125
0.0286748	53.4661
0.0288403	53.6202
0.0290068	53.7748
0.0291743	53.9298
0.0293427	54.0852
0.0295121	54.2411
0.0296825	54.3975
0.0298538	54.5543
0.0300262	54.7115
0.0301995	54.864
0.0303739	55.0015
0.0305492	55.1394
0.0307256	55.2775
0.030903	55.4159
0.0310814	55.5546
0.0312608	55.6936
0.0314413	55.8329
0.0316228	55.9724
0.0318053	56.1122
0.031989	56.2523
0.0321736	56.3927
0.0323594	56.5333
0.0325462	56.6743
0.0327341	56.8155
0.032923	56.957
0.0331131	57.0987
0.0333043	57.2408
0.0334965	57.3831
0.0336899	57.5257
0.0338844	57.6686
0.03408	57.8117
0.0342768	57.9551
0.0344747	58.0988
0.0346737	58.2428
0.0348739	58.387
0.0350752	58.5315
0.0352777	58.6763
0.0354813	58.8214
0.0356862	58.9667
0.0358922	59.1123
0.0360994	59.2582
0.0363078	59.4044
0.0365174	59.5508
0.0367282	59.6975
0.0369403	59.8444
0.0371535	59.9916
0.037368	60.1391
0.0375837	60.2869
0.0378007	60.4349
0.0380189	60.5832
0.0382384	60.7317
0.0384592	60.8806
0.0386812	61.0296
0.0389045	61.179
0.0391291	61.3286
0.039355	61.4784
0.0395822	61.6285
0.0398107	61.7789
0.0400405	61.9296
0.0402717	62.0805
0.0405042	62.2316
0.040738	62.383
0.0409732	62.5347
0.0412098	62.6866
0.0414477	62.8388
0.0416869	62.9912
0.0419276	63.1439
0.0421697	63.2968
0.0424131	63.45
0.042658	63.6034
0.0429042	63.757
0.0431519	63.9109
0.043401	64.0651
0.0436516	64.2195
0.0439036	64.3741
0.044157	64.529
0.044412	64.6841
0.0446684	64.8395
0.0449262	64.9951
0.0451856	65.1509
0.0454465	65.307
0.0457088	65.4633
0.0459727	65.6198
0.0462381	65.7766
0.046505	65.9336
0.0467735	66.0908
0.0470435	66.2483
0.0473151	66.406
0.0475883	66.5638
0.047863	66.722
0.0481393	66.8803
0.0484172	67.0389
0.0486968	67.1977
0.0489779	67.3566
0.0492606	67.5159
0.049545	67.6753
0.049831	67.8349
0.0501187	67.9948
0.0504081	68.1548
0.0506991	68.3151
0.0509918	68.4755
0.0512861	68.6362
0.0515822	68.7971
0.05188	68.9581
0.0521795	69.1194
0.0524807	69.2808
0.0527837	69.4425
0.0530884	69.6043
0.0533949	69.7663
0.0537032	69.9286
0.0540132	70.091
0.054325	70.2535
0.0546387	70.4163
0.0549541	70.5793
0.0552713	70.7424
0.0555904	70.9057
0.0559114	71.0691
0.0562341	71.2328
0.0565588	71.3966
0.0568853	71.5605
0.0572137	71.7247
0.057544	71.889
0.0578762	72.0534
0.0582103	72.218
0.0585464	72.3828
0.0588844	72.5477
0.0592243	72.7128
0.0595662	72.878
0.0599101	73.0433
0.060256	73.2088
0.0606038	73.3744
0.0609537	73.5402
0.0613056	73.7061
0.0616595	73.8721
0.0620155	74.0382
0.0623735	74.2045
0.0627336	74.3709
0.0630957	74.5374
0.06346	74.704
0.0638263	74.8708
0.0641948	75.0376
0.0645654	75.2046
0.0649382	75.3716
0.0653131	75.5388
0.0656901	75.7061
0.0660693	75.8734
0.0664508	76.0408
0.0668344	76.2084
0.0672202	76.376
0.0676083	76.5437
0.0679986	76.7114
0.0683912	76.8793
0.068786	77.0472
0.0691831	77.2151
0.0695825	77.3832
0.0699842	77.5513
0.0703882	77.7194
0.0707946	77.8876
0.0712033	78.0559
0.0716143	78.2242
0.0720278	78.3925
0.0724436	78.5609
0.0728618	78.7293
0.0732825	78.8977
0.0737055	79.0662
0.074131	79.2347
0.074559	79.4032
0.0749894	79.5717
0.0754223	79.7402
0.0758578	79.9087
0.0762957	80.0772
0.0767361	80.2458
0.0771792	80.4143
0.0776247	80.5828
0.0780728	80.7513
0.0785236	80.9197
0.0789769	81.0882
0.0794328	81.2566
0.0798914	81.425
0.0803526	81.5933
0.0808165	81.7616
0.0812831	81.9298
0.0817523	82.098
0.0822243	82.2662
0.082699	82.4342
0.0831764	82.6022
0.0836566	82.7702
0.0841395	82.938
0.0846253	83.1058
0.0851138	83.2735
0.0856052	83.4411
0.0860994	83.6086
0.0865964	83.776
0.0870964	83.9433
0.0875992	84.1105
0.0881049	84.2775
0.0886135	84.4445
0.0891251	84.6113
0.0896396	84.7779
0.0901571	84.9445
0.0906776	85.1109
0.0912011	85.2771
0.0917276	85.4432
0.0922571	85.6091
0.0927897	85.7749
0.0933254	85.9404
0.0938642	86.1058
0.0944061	86.2711
0.0949511	86.4361
0.0954993	86.6009
0.0960506	86.7656
0.0966051	86.93
0.0971628	87.0942
0.0977237	87.2582
0.0982879	87.422
0.0988553	87.5855
0.099426	87.7488
0.1	87.9118
0.100577	88.0746
0.101158	88.2372
0.101742	88.3995
0.102329	88.5615
0.10292	88.7232
0.103514	88.8847
0.104112	89.0458
0.104713	89.2067
0.105317	89.3673
0.105925	89.5275
0.106537	89.6875
0.107152	89.8471
0.107771	90.0064
0.108393	90.1654
0.109018	90.324
0.109648	90.4822
0.110281	90.6402
0.110917	90.7977
0.111558	90.9549
0.112202	91.1117
0.11285	91.2681
0.113501	91.4242
0.114156	91.5798
0.114815	91.735
0.115478	91.8898
0.116145	92.0442
0.116815	92.1982
0.11749	92.3518
0.118168	92.5049
0.11885	92.6575
0.119536	92.8097
0.120226	92.9614
0.120921	93.1047
0.121619	93.2368
0.122321	93.3682
0.123027	93.4989
0.123737	93.6289
0.124451	93.7582
0.12517	93.8867
0.125893	94.0145
0.126619	94.1415
0.12735	94.2677
0.128086	94.3932
0.128825	94.5179
0.129569	94.6418
0.130317	94.7649
0.131069	94.8871
0.131826	95.0086
0.132587	95.1292
0.133352	95.2489
0.134122	95.3678
0.134896	95.4859
0.135675	95.6031
0.136458	95.7193
0.137246	95.8347
0.138038	95.9492
0.138835	96.0628
0.139637	96.1754
0.140443	96.2871
0.141254	96.3978
0.142069	96.5076
0.142889	96.6165
0.143714	96.7243
0.144544	96.8312
0.145378	96.937
0.146218	97.0419
0.147062	97.1457
0.147911	97.2485
0.148765	97.3503
0.149624	97.451
0.150487	97.5507
0.151356	97.6492
0.15223	97.7467
0.153109	97.8432
0.153993	97.9385
0.154882	98.0327
0.155776	98.1257
0.156675	98.2177
0.15758	98.3085
0.158489	98.3981
0.159404	98.4866
0.160325	98.5739
0.16125	98.66
0.162181	98.7449
0.163117	98.8286
0.164059	98.9111
0.165006	98.9924
0.165959	99.0724
0.166917	99.1512
0.16788	99.2287
0.16885	99.305
0.169824	99.38
0.170805	99.4537
0.171791	99.5261
0.172783	99.5972
0.17378	99.667
0.174783	99.7354
0.175792	99.8025
0.176807	99.8683
0.177828	99.9327
0.178855	99.9957
0.179887	100.057
0.180926	100.118
0.18197	100.177
0.183021	100.234
0.184077	100.29
0.18514	100.345
0.186209	100.398
0.187284	100.45
0.188365	100.5
0.189452	100.549
0.190546	100.596
0.191646	100.642
0.192752	100.686
0.193865	100.729
0.194984	100.771
0.19611	100.811
0.197242	100.849
0.198381	100.886
0.199526	100.921
0.200678	100.955
0.201837	100.987
0.203002	101.017
0.204174	101.046
0.205353	101.074
0.206538	101.1
0.20773	101.124
0.20893	101.146
0.210136	101.167
0.211349	101.187
0.212569	101.205
0.213796	101.221
0.21503	101.235
0.216272	101.248
0.21752	101.259
0.218776	101.269
0.220039	101.276
0.221309	101.282
0.222587	101.287
0.223872	101.29
0.225165	101.291
0.226464	101.29
0.227772	101.288
0.229087	101.283
0.230409	101.278
0.231739	101.27
0.233077	101.261
0.234423	101.25
0.235776	101.237
0.237137	101.222
0.238506	101.206
0.239883	101.188
0.241268	101.168
0.242661	101.146
0.244062	101.123
0.245471	101.098
0.246888	101.071
0.248313	101.042
0.249747	101.012
0.251189	100.979
0.252639	100.945
0.254097	100.909
0.255564	100.871
0.25704	100.832
0.258523	100.79
0.260016	100.747
0.261517	100.702
0.263027	100.655
0.264545	100.607
0.266073	100.556
0.267609	100.504
0.269153	100.45
0.270707	100.394
0.27227	100.336
0.273842	100.276
0.275423	100.215
0.277013	100.152
0.278612	100.087
0.280221	100.02
0.281838	99.951
0.283465	99.8804
0.285102	99.808
0.286748	99.7337
0.288403	99.6576
0.290068	99.5797
0.291743	99.5
0.293427	99.4184
0.295121	99.335
0.296825	99.2498
0.298538	99.1628
0.300262	99.074
0.301995	98.9833
0.303739	98.8908
0.305492	98.7966
0.307256	98.7005
0.30903	98.6026
0.310814	98.5029
0.312608	98.4014
0.314413	98.2982
0.316228	98.1931
0.318053	98.0863
0.31989	97.9776
0.321736	97.8673
0.323594	97.7551
0.325462	97.6412
0.327341	97.5255
0.32923	97.4081
0.331131	97.2889
0.333043	97.168
0.334965	97.0454
0.336899	96.921
0.338844	96.7949
0.3408	96.6671
0.342768	96.5376
0.344747	96.4064
0.346737	96.2735
0.348739	96.1389
0.350752	96.0027
0.352777	95.8648
0.354813	95.7252
0.356862	95.584
0.358922	95.4411
0.360994	95.2966
0.363078	95.1505
0.365174	95.0028
0.367282	94.8534
0.369403	94.7025
0.371535	94.55
0.37368	94.3959
0.375837	94.2403
0.378007	94.0831
0.380189	93.9244
0.382384	93.7641
0.384592	93.6023
0.386812	93.4391
0.389045	93.2743
0.391291	93.108
0.39355	92.9403
0.395822	92.7711
0.398107	92.6004
0.400405	92.4284
0.402717	92.2549
0.405042	92.0799
0.40738	91.9036
0.409732	91.7259
0.412098	91.5469
0.414477	91.3665
0.416869	91.1847
0.419276	91.0016
0.421697	90.8172
0.424131	90.6315
0.42658	90.4445
0.429042	90.2562
0.431519	90.0667
0.43401	89.8759
0.436516	89.6839
0.439036	89.4907
0.44157	89.2963
0.44412	89.1007
0.446684	88.9039
0.449262	88.706
0.451856	88.507
0.454465	88.3068
0.457088	88.1055
0.459727	87.9031
0.462381	87.6996
0.46505	87.4951
0.467735	87.2896
0.470435	87.083
0.473151	86.8754
0.475883	86.6668
0.47863	86.4572
0.481393	86.2466
0.484172	86.0351
0.486968	85.8227
0.489779	85.6094
0.492606	85.3952
0.49545	85.1801
0.49831	84.9641
0.501187	84.7473
0.504081	84.5296
0.506991	84.3112
0.509918	84.0919
0.512861	83.8719
0.515822	83.6511
0.5188	83.4295
0.521795	83.2073
0.524807	82.9843
0.527837	82.7606
0.530884	82.5363
0.533949	82.3112
0.537032	82.0856
0.540132	81.8593
0.54325	81.6324
0.546387	81.405
0.549541	81.1769
0.552713	80.9483
0.555904	80.7191
0.559114	80.4895
0.562341	80.2593
0.565588	80.0286
0.568853	79.7975
0.572137	79.5659
0.57544	79.3338
0.578762	79.1014
0.582103	78.8685
0.585464	78.6353
0.588844	78.4016
0.592243	78.1676
0.595662	77.9333
0.599101	77.6987
0.60256	77.4637
0.606038	77.2285
0.609537	76.993
