Stopping power dEdx from Ionisation for triton Z = 1 in G4_Si, process name: hIoni
E [MeV]	dEdx [MeV/mm]
0.001	14.1397
0.00100577	14.1804
0.00101158	14.2213
0.00101742	14.2623
0.00102329	14.3034
0.0010292	14.3446
0.00103514	14.386
0.00104112	14.4275
0.00104713	14.469
0.00105317	14.5107
0.00105925	14.5526
0.00106537	14.5945
0.00107152	14.6366
0.00107771	14.6788
0.00108393	14.7211
0.00109018	14.7635
0.00109648	14.8061
0.00110281	14.8487
0.00110917	14.8915
0.00111558	14.9345
0.00112202	14.9775
0.0011285	15.0207
0.00113501	15.064
0.00114156	15.1074
0.00114815	15.1509
0.00115478	15.1946
0.00116145	15.2384
0.00116815	15.2823
0.0011749	15.3264
0.00118168	15.3706
0.0011885	15.4149
0.00119536	15.4593
0.00120226	15.5039
0.00120921	15.5485
0.00121619	15.5934
0.00122321	15.6383
0.00123027	15.6834
0.00123737	15.7286
0.00124451	15.7739
0.0012517	15.8194
0.00125893	15.865
0.00126619	15.9107
0.0012735	15.9566
0.00128086	16.0026
0.00128825	16.0487
0.00129569	16.095
0.00130317	16.1413
0.00131069	16.1879
0.00131826	16.2345
0.00132587	16.2813
0.00133352	16.3283
0.00134122	16.3753
0.00134896	16.4225
0.00135675	16.4699
0.00136458	16.5173
0.00137246	16.5649
0.00138038	16.6127
0.00138835	16.6606
0.00139637	16.7086
0.00140443	16.7568
0.00141254	16.8051
0.00142069	16.8535
0.00142889	16.9021
0.00143714	16.9508
0.00144544	16.9996
0.00145378	17.0486
0.00146218	17.0978
0.00147062	17.1471
0.00147911	17.1965
0.00148765	17.2461
0.00149624	17.2958
0.00150487	17.3456
0.00151356	17.3956
0.0015223	17.4458
0.00153109	17.496
0.00153993	17.5465
0.00154882	17.597
0.00155776	17.6478
0.00156675	17.6986
0.0015758	17.7497
0.00158489	17.8008
0.00159404	17.8521
0.00160325	17.9036
0.0016125	17.9552
0.00162181	18.0069
0.00163117	18.0588
0.00164059	18.1109
0.00165006	18.1631
0.00165959	18.2154
0.00166917	18.268
0.0016788	18.3206
0.0016885	18.3734
0.00169824	18.4264
0.00170805	18.4795
0.00171791	18.5327
0.00172783	18.5862
0.0017378	18.6397
0.00174783	18.6935
0.00175792	18.7473
0.00176807	18.8014
0.00177828	18.8556
0.00178855	18.9099
0.00179887	18.9644
0.00180926	19.0191
0.0018197	19.0739
0.00183021	19.1289
0.00184077	19.184
0.0018514	19.2393
0.00186209	19.2948
0.00187284	19.3504
0.00188365	19.4062
0.00189452	19.4621
0.00190546	19.5182
0.00191646	19.5745
0.00192752	19.6309
0.00193865	19.6875
0.00194984	19.7442
0.0019611	19.8011
0.00197242	19.8582
0.00198381	19.9154
0.00199526	19.9728
0.00200678	20.0304
0.00201837	20.0881
0.00203002	20.146
0.00204174	20.2041
0.00205353	20.2624
0.00206538	20.3208
0.0020773	20.3793
0.0020893	20.4381
0.00210136	20.497
0.00211349	20.5561
0.00212569	20.6153
0.00213796	20.6747
0.0021503	20.7343
0.00216272	20.7941
0.0021752	20.854
0.00218776	20.9141
0.00220039	20.9744
0.00221309	21.0349
0.00222587	21.0955
0.00223872	21.1563
0.00225165	21.2173
0.00226464	21.2784
0.00227772	21.3398
0.00229087	21.4013
0.00230409	21.463
0.00231739	21.5248
0.00233077	21.5869
0.00234423	21.6491
0.00235776	21.7115
0.00237137	21.7741
0.00238506	21.8368
0.00239883	21.8998
0.00241268	21.9629
0.00242661	22.0262
0.00244062	22.0897
0.00245471	22.1534
0.00246888	22.2172
0.00248313	22.2813
0.00249747	22.3455
0.00251189	22.4099
0.00252639	22.4745
0.00254097	22.5393
0.00255564	22.6042
0.0025704	22.6694
0.00258523	22.7347
0.00260016	22.8003
0.00261517	22.866
0.00263027	22.9319
0.00264545	22.998
0.00266073	23.0643
0.00267609	23.1308
0.00269153	23.1974
0.00270707	23.2643
0.0027227	23.3313
0.00273842	23.3986
0.00275423	23.466
0.00277013	23.5337
0.00278612	23.6015
0.00280221	23.6695
0.00281838	23.7378
0.00283465	23.8062
0.00285102	23.8748
0.00286748	23.9436
0.00288403	24.0126
0.00290068	24.0818
0.00291743	24.1513
0.00293427	24.2209
0.00295121	24.2907
0.00296825	24.3607
0.00298538	24.4309
0.00300262	24.4965
0.00301995	24.558
0.00303739	24.62
0.00305492	24.6823
0.00307256	24.7452
0.0030903	24.8084
0.00310814	24.8721
0.00312608	24.9362
0.00314413	25.0008
0.00316228	25.0658
0.00318053	25.1313
0.0031989	25.1972
0.00321736	25.2636
0.00323594	25.3305
0.00325462	25.3978
0.00327341	25.4656
0.0032923	25.5338
0.00331131	25.6026
0.00333043	25.6718
0.00334965	25.7414
0.00336899	25.8116
0.00338844	25.8822
0.003408	25.9533
0.00342768	26.0249
0.00344747	26.0969
0.00346737	26.1695
0.00348739	26.2425
0.00350752	26.3161
0.00352777	26.3901
0.00354813	26.4646
0.00356862	26.5397
0.00358922	26.6152
0.00360994	26.6912
0.00363078	26.7678
0.00365174	26.8448
0.00367282	26.9224
0.00369403	27.0004
0.00371535	27.079
0.0037368	27.1581
0.00375837	27.2377
0.00378007	27.3179
0.00380189	27.3985
0.00382384	27.4797
0.00384592	27.5614
0.00386812	27.6436
0.00389045	27.7264
0.00391291	27.8097
0.0039355	27.8935
0.00395822	27.9779
0.00398107	28.0628
0.00400405	28.1482
0.00402717	28.2342
0.00405042	28.3207
0.0040738	28.4077
0.00409732	28.4953
0.00412098	28.5834
0.00414477	28.6721
0.00416869	28.7613
0.00419276	28.8511
0.00421697	28.9414
0.00424131	29.0323
0.0042658	29.1237
0.00429042	29.2157
0.00431519	29.3082
0.0043401	29.4013
0.00436516	29.495
0.00439036	29.5891
0.0044157	29.6839
0.0044412	29.7792
0.00446684	29.875
0.00449262	29.9703
0.00451856	30.0523
0.00454465	30.1348
0.00457088	30.2178
0.00459727	30.3012
0.00462381	30.3851
0.0046505	30.4695
0.00467735	30.5543
0.00470435	30.6396
0.00473151	30.7254
0.00475883	30.8117
0.0047863	30.8984
0.00481393	30.9855
0.00484172	31.0731
0.00486968	31.1612
0.00489779	31.2498
0.00492606	31.3387
0.0049545	31.4282
0.0049831	31.5181
0.00501187	31.6084
0.00504081	31.6992
0.00506991	31.7904
0.00509918	31.8821
0.00512861	31.9742
0.00515822	32.0668
0.005188	32.1597
0.00521795	32.2531
0.00524807	32.347
0.00527837	32.4412
0.00530884	32.5359
0.00533949	32.6309
0.00537032	32.7264
0.00540132	32.8223
0.0054325	32.9186
0.00546387	33.0153
0.00549541	33.1124
0.00552713	33.2098
0.00555904	33.3076
0.00559114	33.4059
0.00562341	33.5044
0.00565588	33.6034
0.00568853	33.7027
0.00572137	33.8023
0.0057544	33.9023
0.00578762	34.0026
0.00582103	34.1032
0.00585464	34.2042
0.00588844	34.3055
0.00592243	34.4071
0.00595662	34.5089
0.00599101	34.6108
0.0060256	34.7108
0.00606038	34.811
0.00609537	34.9115
0.00613056	35.0122
0.00616595	35.1133
0.00620155	35.2145
0.00623735	35.3161
0.00627336	35.4179
0.00630957	35.52
0.006346	35.6224
0.00638263	35.725
0.00641948	35.8279
0.00645654	35.9311
0.00649382	36.0346
0.00653131	36.1383
0.00656901	36.2423
0.00660693	36.3466
0.00664508	36.4512
0.00668344	36.5561
0.00672202	36.6612
0.00676083	36.7666
0.00679986	36.8724
0.00683912	36.9784
0.0068786	37.0847
0.00691831	37.1913
0.00695825	37.2981
0.00699842	37.4053
0.00703882	37.5128
0.00707946	37.6206
0.00712033	37.7287
0.00716143	37.8371
0.00720278	37.9458
0.00724436	38.0548
0.00728618	38.1642
0.00732825	38.2738
0.00737055	38.3838
0.0074131	38.4941
0.0074559	38.6048
0.00749894	38.7157
0.00754223	38.8267
0.00758578	38.9382
0.00762957	39.0499
0.00767361	39.162
0.00771792	39.2744
0.00776247	39.3872
0.00780728	39.5003
0.00785236	39.6137
0.00789769	39.7275
0.00794328	39.8416
0.00798914	39.956
0.00803526	40.0708
0.00808165	40.186
0.00812831	40.3015
0.00817523	40.4173
0.00822243	40.5335
0.0082699	40.65
0.00831764	40.7669
0.00836566	40.8841
0.00841395	41.0017
0.00846253	41.1196
0.00851138	41.2379
0.00856052	41.3566
0.00860994	41.4756
0.00865964	41.5949
0.00870964	41.7147
0.00875992	41.8348
0.00881049	41.9552
0.00886135	42.0761
0.00891251	42.1973
0.00896396	42.3189
0.00901571	42.4408
0.00906776	42.5632
0.00912011	42.686
0.00917276	42.8091
0.00922571	42.9326
0.00927897	43.0565
0.00933254	43.1808
0.00938642	43.3054
0.00944061	43.4304
0.00949511	43.5558
0.00954993	43.6816
0.00960506	43.8078
0.00966051	43.9343
0.00971628	44.0612
0.00977237	44.1885
0.00982879	44.3162
0.00988553	44.4442
0.0099426	44.5727
0.01	44.7015
0.0100577	44.8307
0.0101158	44.9602
0.0101742	45.0902
0.0102329	45.2205
0.010292	45.3513
0.0103514	45.4824
0.0104112	45.6138
0.0104713	45.7457
0.0105317	45.878
0.0105925	46.0106
0.0106537	46.1436
0.0107152	46.2771
0.0107771	46.4109
0.0108393	46.545
0.0109018	46.6796
0.0109648	46.8146
0.0110281	46.9499
0.0110917	47.0857
0.0111558	47.2218
0.0112202	47.3584
0.011285	47.4953
0.0113501	47.6326
0.0114156	47.7703
0.0114815	47.9084
0.0115478	48.0469
0.0116145	48.1859
0.0116815	48.3252
0.011749	48.4649
0.0118168	48.605
0.011885	48.7455
0.0119536	48.8865
0.0120226	49.0276
0.0120921	49.1691
0.0121619	49.3111
0.0122321	49.4534
0.0123027	49.5961
0.0123737	49.7393
0.0124451	49.8828
0.012517	50.0268
0.0125893	50.1712
0.0126619	50.3159
0.012735	50.4611
0.0128086	50.6067
0.0128825	50.7528
0.0129569	50.8992
0.0130317	51.046
0.0131069	51.1933
0.0131826	51.341
0.0132587	51.4891
0.0133352	51.6376
0.0134122	51.7865
0.0134896	51.9359
0.0135675	52.0856
0.0136458	52.2358
0.0137246	52.3864
0.0138038	52.5375
0.0138835	52.6889
0.0139637	52.8408
0.0140443	52.9931
0.0141254	53.1458
0.0142069	53.299
0.0142889	53.4526
0.0143714	53.6066
0.0144544	53.7611
0.0145378	53.916
0.0146218	54.0713
0.0147062	54.2271
0.0147911	54.3833
0.0148765	54.5399
0.0149624	54.697
0.0150487	54.8547
0.0151356	55.0127
0.015223	55.1713
0.0153109	55.3303
0.0153993	55.4897
0.0154882	55.6496
0.0155776	55.8099
0.0156675	55.9707
0.015758	56.132
0.0158489	56.2937
0.0159404	56.4559
0.0160325	56.6185
0.016125	56.7816
0.0162181	56.9452
0.0163117	57.1092
0.0164059	57.2737
0.0165006	57.4387
0.0165959	57.6042
0.0166917	57.7701
0.016788	57.9365
0.016885	58.1034
0.0169824	58.2707
0.0170805	58.4386
0.0171791	58.6069
0.0172783	58.7758
0.017378	58.9451
0.0174783	59.1149
0.0175792	59.2853
0.0176807	59.4561
0.0177828	59.6274
0.0178855	59.7993
0.0179887	59.9716
0.0180926	60.1445
0.018197	60.3179
0.0183021	60.4918
0.0184077	60.6663
0.018514	60.8412
0.0186209	61.0166
0.0187284	61.1926
0.0188365	61.3691
0.0189452	61.546
0.0190546	61.7235
0.0191646	61.9015
0.0192752	62.08
0.0193865	62.2589
0.0194984	62.4384
0.019611	62.6184
0.0197242	62.7988
0.0198381	62.9798
0.0199526	63.1612
0.0200678	63.3432
0.0201837	63.5256
0.0203002	63.7085
0.0204174	63.8919
0.0205353	64.0757
0.0206538	64.2601
0.020773	64.4449
0.020893	64.6302
0.0210136	64.816
0.0211349	65.0022
0.0212569	65.1889
0.0213796	65.3761
0.021503	65.5638
0.0216272	65.752
0.021752	65.9407
0.0218776	66.1299
0.0220039	66.3196
0.0221309	66.5099
0.0222587	66.7007
0.0223872	66.892
0.0225165	67.0839
0.0226464	67.2763
0.0227772	67.4693
0.0229087	67.6628
0.0230409	67.857
0.0231739	68.0517
0.0233077	68.2471
0.0234423	68.4431
0.0235776	68.6396
0.0237137	68.8369
0.0238506	69.0348
0.0239883	69.2333
0.0241268	69.4325
0.0242661	69.6324
0.0244062	69.833
0.0245471	70.0343
0.0246888	70.2362
0.0248313	70.4389
0.0249747	70.6423
0.0251189	70.8465
0.0252639	71.0513
0.0254097	71.2569
0.0255564	71.4633
0.025704	71.6704
0.0258523	71.8783
0.0260016	72.087
0.0261517	72.2965
0.0263027	72.5068
0.0264545	72.7179
0.0266073	72.9298
0.0267609	73.1426
0.0269153	73.3562
0.0270707	73.5706
0.027227	73.7859
0.0273842	74.0019
0.0275423	74.2184
0.0277013	74.4355
0.0278612	74.653
0.0280221	74.8708
0.0281838	75.0888
0.0283465	75.3069
0.0285102	75.5249
0.0286748	75.7429
0.0288403	75.9605
0.0290068	76.1777
0.0291743	76.3944
0.0293427	76.6105
0.0295121	76.8257
0.0296825	77.04
0.0298538	77.2532
0.0300262	77.4652
0.0301995	77.6759
0.0303739	77.8854
0.0305492	78.0936
0.0307256	78.3005
0.030903	78.5062
0.0310814	78.7108
0.0312608	78.9142
0.0314413	79.1165
0.0316228	79.3176
0.0318053	79.5177
0.031989	79.7168
0.0321736	79.915
0.0323594	80.1121
0.0325462	80.3084
0.0327341	80.5039
0.032923	80.6985
0.0331131	80.8924
0.0333043	81.0856
0.0334965	81.2781
0.0336899	81.47
0.0338844	81.6614
0.03408	81.8523
0.0342768	82.0429
0.0344747	82.233
0.0346737	82.4229
0.0348739	82.6126
0.0350752	82.8022
0.0352777	82.9917
0.0354813	83.1813
0.0356862	83.371
0.0358922	83.5608
0.0360994	83.751
0.0363078	83.9415
0.0365174	84.1325
0.0367282	84.3241
0.0369403	84.5164
0.0371535	84.7095
0.037368	84.9035
0.0375837	85.0974
0.0378007	85.292
0.0380189	85.4876
0.0382384	85.6842
0.0384592	85.8817
0.0386812	86.0802
0.0389045	86.2796
0.0391291	86.4799
0.039355	86.681
0.0395822	86.883
0.0398107	87.0857
0.0400405	87.2893
0.0402717	87.4936
0.0405042	87.6986
0.040738	87.9043
0.0409732	88.1107
0.0412098	88.3176
0.0414477	88.5252
0.0416869	88.7333
0.0419276	88.9419
0.0421697	89.151
0.0424131	89.3605
0.042658	89.5704
0.0429042	89.7806
0.0431519	89.9912
0.043401	90.2019
0.0436516	90.4129
0.0439036	90.6241
0.044157	90.8353
0.044412	91.0467
0.0446684	91.258
0.0449262	91.4692
0.0451856	91.6804
0.0454465	91.8916
0.0457088	92.1026
0.0459727	92.3135
0.0462381	92.5243
0.046505	92.7351
0.0467735	92.9457
0.0470435	93.1563
0.0473151	93.3668
0.0475883	93.5773
0.047863	93.7877
0.0481393	93.998
0.0484172	94.2083
0.0486968	94.4186
0.0489779	94.6289
0.0492606	94.8391
0.049545	95.0493
0.049831	95.2596
0.0501187	95.4699
0.0504081	95.6802
0.0506991	95.8905
0.0509918	96.101
0.0512861	96.3115
0.0515822	96.522
0.05188	96.7327
0.0521795	96.9435
0.0524807	97.1545
0.0527837	97.3656
0.0530884	97.5769
0.0533949	97.7883
0.0537032	97.9998
0.0540132	98.2115
0.054325	98.4232
0.0546387	98.635
0.0549541	98.847
0.0552713	99.059
0.0555904	99.271
0.0559114	99.4832
0.0562341	99.6954
0.0565588	99.9076
0.0568853	100.12
0.0572137	100.332
0.057544	100.544
0.0578762	100.757
0.0582103	100.969
0.0585464	101.181
0.0588844	101.393
0.0592243	101.605
0.0595662	101.817
0.0599101	102.029
0.060256	102.241
0.0606038	102.453
0.0609537	102.665
0.0613056	102.876
0.0616595	103.088
0.0620155	103.299
0.0623735	103.511
0.0627336	103.722
0.0630957	103.933
0.06346	104.144
0.0638263	104.354
0.0641948	104.565
0.0645654	104.775
0.0649382	104.986
0.0653131	105.196
0.0656901	105.406
0.0660693	105.615
0.0664508	105.825
0.0668344	106.034
0.0672202	106.243
0.0676083	106.452
0.0679986	106.661
0.0683912	106.869
0.068786	107.078
0.0691831	107.286
0.0695825	107.493
0.0699842	107.701
0.0703882	107.908
0.0707946	108.115
0.0712033	108.321
0.0716143	108.527
0.0720278	108.733
0.0724436	108.938
0.0728618	109.143
0.0732825	109.348
0.0737055	109.552
0.074131	109.755
0.074559	109.959
0.0749894	110.161
0.0754223	110.363
0.0758578	110.565
0.0762957	110.766
0.0767361	110.967
0.0771792	111.167
0.0776247	111.367
0.0780728	111.566
0.0785236	111.764
0.0789769	111.963
0.0794328	112.16
0.0798914	112.357
0.0803526	112.554
0.0808165	112.75
0.0812831	112.946
0.0817523	113.141
0.0822243	113.336
0.082699	113.53
0.0831764	113.723
0.0836566	113.917
0.0841395	114.109
0.0846253	114.301
0.0851138	114.493
0.0856052	114.684
0.0860994	114.874
0.0865964	115.063
0.0870964	115.252
0.0875992	115.44
0.0881049	115.627
0.0886135	115.813
0.0891251	115.998
0.0896396	116.183
0.0901571	116.366
0.0906776	116.549
0.0912011	116.73
0.0917276	116.911
0.0922571	117.09
0.0927897	117.269
0.0933254	117.446
0.0938642	117.623
0.0944061	117.798
0.0949511	117.972
0.0954993	118.146
0.0960506	118.318
0.0966051	118.489
0.0971628	118.659
0.0977237	118.828
0.0982879	118.996
0.0988553	119.163
0.099426	119.329
0.1	119.493
0.100577	119.657
0.101158	119.819
0.101742	119.98
0.102329	120.14
0.10292	120.299
0.103514	120.457
0.104112	120.614
0.104713	120.77
0.105317	120.924
0.105925	121.077
0.106537	121.228
0.107152	121.379
0.107771	121.528
0.108393	121.676
0.109018	121.823
0.109648	121.968
0.110281	122.113
0.110917	122.256
0.111558	122.397
0.112202	122.538
0.11285	122.677
0.113501	122.814
0.114156	122.951
0.114815	123.085
0.115478	123.219
0.116145	123.351
0.116815	123.481
0.11749	123.61
0.118168	123.738
0.11885	123.864
0.119536	123.988
0.120226	124.111
0.120921	124.232
0.121619	124.352
0.122321	124.47
0.123027	124.587
0.123737	124.702
0.124451	124.815
0.12517	124.926
0.125893	125.036
0.126619	125.144
0.12735	125.25
0.128086	125.355
0.128825	125.457
0.129569	125.558
0.130317	125.657
0.131069	125.755
0.131826	125.85
0.132587	125.944
0.133352	126.035
0.134122	126.125
0.134896	126.213
0.135675	126.299
0.136458	126.383
0.137246	126.465
0.138038	126.545
0.138835	126.623
0.139637	126.699
0.140443	126.773
0.141254	126.845
0.142069	126.915
0.142889	126.983
0.143714	127.048
0.144544	127.112
0.145378	127.173
0.146218	127.232
0.147062	127.289
0.147911	127.344
0.148765	127.397
0.149624	127.447
0.150487	127.496
0.151356	127.542
0.15223	127.585
0.153109	127.627
0.153993	127.666
0.154882	127.703
0.155776	127.738
0.156675	127.771
0.15758	127.801
0.158489	127.83
0.159404	127.856
0.160325	127.88
0.16125	127.902
0.162181	127.922
0.163117	127.939
0.164059	127.955
0.165006	127.968
0.165959	127.98
0.166917	127.989
0.16788	127.996
0.16885	128.002
0.169824	128.005
0.170805	128.005
0.171791	128.004
0.172783	128.001
0.17378	127.995
0.174783	127.987
0.175792	127.976
0.176807	127.964
0.177828	127.949
0.178855	127.931
0.179887	127.912
0.180926	127.89
0.18197	127.865
0.183021	127.838
0.184077	127.809
0.18514	127.778
0.186209	127.744
0.187284	127.707
0.188365	127.668
0.189452	127.627
0.190546	127.584
0.191646	127.538
0.192752	127.489
0.193865	127.439
0.194984	127.386
0.19611	127.33
0.197242	127.272
0.198381	127.212
0.199526	127.149
0.200678	127.084
0.201837	127.017
0.203002	126.947
0.204174	126.875
0.205353	126.8
0.206538	126.724
0.20773	126.644
0.20893	126.563
0.210136	126.479
0.211349	126.392
0.212569	126.304
0.213796	126.213
0.21503	126.12
0.216272	126.025
0.21752	125.927
0.218776	125.828
0.220039	125.726
0.221309	125.623
0.222587	125.517
0.223872	125.409
0.225165	125.3
0.226464	125.189
0.227772	125.076
0.229087	124.961
0.230409	124.844
0.231739	124.725
0.233077	124.603
0.234423	124.48
0.235776	124.355
0.237137	124.227
0.238506	124.097
0.239883	123.965
0.241268	123.831
0.242661	123.694
0.244062	123.556
0.245471	123.415
0.246888	123.272
0.248313	123.127
0.249747	122.979
0.251189	122.83
0.252639	122.68
0.254097	122.527
0.255564	122.372
0.25704	122.216
0.258523	122.059
0.260016	121.899
0.261517	121.738
0.263027	121.576
0.264545	121.412
0.266073	121.246
0.267609	121.079
0.269153	120.911
0.270707	120.741
0.27227	120.57
0.273842	120.398
0.275423	120.224
0.277013	120.049
0.278612	119.872
0.280221	119.693
0.281838	119.513
0.283465	119.331
0.285102	119.148
0.286748	118.962
0.288403	118.775
0.290068	118.586
0.291743	118.396
0.293427	118.204
0.295121	118.011
0.296825	117.816
0.298538	117.62
0.300262	117.424
0.301995	117.226
0.303739	117.027
0.305492	116.827
0.307256	116.626
0.30903	116.423
0.310814	116.22
0.312608	116.016
0.314413	115.811
0.316228	115.605
0.318053	115.397
0.31989	115.189
0.321736	114.98
0.323594	114.77
0.325462	114.559
0.327341	114.347
0.32923	114.134
0.331131	113.921
0.333043	113.706
0.334965	113.491
0.336899	113.274
0.338844	113.057
0.3408	112.839
0.342768	112.621
0.344747	112.401
0.346737	112.181
0.348739	111.96
0.350752	111.739
0.352777	111.517
0.354813	111.294
0.356862	111.07
0.358922	110.846
0.360994	110.622
0.363078	110.396
0.365174	110.171
0.367282	109.945
0.369403	109.718
0.371535	109.491
0.37368	109.264
0.375837	109.036
0.378007	108.808
0.380189	108.58
0.382384	108.352
0.384592	108.123
0.386812	107.894
0.389045	107.665
0.391291	107.435
0.39355	107.206
0.395822	106.976
0.398107	106.745
0.400405	106.515
0.402717	106.284
0.405042	106.053
0.40738	105.822
0.409732	105.591
0.412098	105.359
0.414477	105.127
0.416869	104.895
0.419276	104.663
0.421697	104.431
0.424131	104.199
0.42658	103.967
0.429042	103.734
0.431519	103.502
0.43401	103.269
0.436516	103.036
0.439036	102.804
0.44157	102.571
0.44412	102.338
0.446684	102.105
0.449262	101.872
0.451856	101.639
0.454465	101.406
0.457088	101.173
0.459727	100.94
0.462381	100.707
0.46505	100.474
0.467735	100.242
0.470435	100.009
0.473151	99.7765
0.475883	99.544
0.47863	99.3118
0.481393	99.0796
0.484172	98.8477
0.486968	98.6159
0.489779	98.3842
0.492606	98.1528
0.49545	97.9217
0.49831	97.6907
0.501187	97.46
0.504081	97.2295
0.506991	96.9993
0.509918	96.7694
0.512861	96.5398
0.515822	96.3105
0.5188	96.0815
0.521795	95.8528
0.524807	95.6245
0.527837	95.3966
0.530884	95.169
0.533949	94.9418
0.537032	94.7149
0.540132	94.4884
0.54325	94.2623
0.546387	94.0366
0.549541	93.8112
0.552713	93.5862
0.555904	93.3616
0.559114	93.1373
0.562341	92.9134
0.565588	92.6899
0.568853	92.4668
0.572137	92.244
0.57544	92.0216
0.578762	91.7995
0.582103	91.5778
0.585464	91.3565
0.588844	91.1355
0.592243	90.9148
0.595662	90.6944
0.599101	90.4744
0.60256	90.2547
0.606038	90.0353
0.609537	89.8163
