Stopping power dEdx from Ionisation for triton Z = 1 in Water, process name: hIoni
E [MeV]	dEdx [MeV/mm]
0.001	9.93182
0.00100577	9.96044
0.00101158	9.98915
0.00101742	10.0179
0.00102329	10.0468
0.0010292	10.0758
0.00103514	10.1048
0.00104112	10.1339
0.00104713	10.1632
0.00105317	10.1925
0.00105925	10.2218
0.00106537	10.2513
0.00107152	10.2808
0.00107771	10.3105
0.00108393	10.3402
0.00109018	10.37
0.00109648	10.3999
0.00110281	10.4299
0.00110917	10.4599
0.00111558	10.4901
0.00112202	10.5203
0.0011285	10.5506
0.00113501	10.581
0.00114156	10.6115
0.00114815	10.6421
0.00115478	10.6728
0.00116145	10.7036
0.00116815	10.7344
0.0011749	10.7654
0.00118168	10.7964
0.0011885	10.8275
0.00119536	10.8587
0.00120226	10.89
0.00120921	10.9214
0.00121619	10.9529
0.00122321	10.9845
0.00123027	11.0161
0.00123737	11.0479
0.00124451	11.0797
0.0012517	11.1117
0.00125893	11.1437
0.00126619	11.1758
0.0012735	11.208
0.00128086	11.2403
0.00128825	11.2727
0.00129569	11.3052
0.00130317	11.3378
0.00131069	11.3705
0.00131826	11.4033
0.00132587	11.4361
0.00133352	11.4691
0.00134122	11.5021
0.00134896	11.5353
0.00135675	11.5685
0.00136458	11.6019
0.00137246	11.6353
0.00138038	11.6689
0.00138835	11.7025
0.00139637	11.7362
0.00140443	11.7701
0.00141254	11.804
0.00142069	11.838
0.00142889	11.8721
0.00143714	11.9064
0.00144544	11.9407
0.00145378	11.9751
0.00146218	12.0096
0.00147062	12.0442
0.00147911	12.0789
0.00148765	12.1138
0.00149624	12.1487
0.00150487	12.1837
0.00151356	12.2188
0.0015223	12.254
0.00153109	12.2893
0.00153993	12.3248
0.00154882	12.3603
0.00155776	12.3959
0.00156675	12.4316
0.0015758	12.4675
0.00158489	12.5034
0.00159404	12.5395
0.00160325	12.5756
0.0016125	12.6118
0.00162181	12.6482
0.00163117	12.6847
0.00164059	12.7212
0.00165006	12.7579
0.00165959	12.7947
0.00166917	12.8315
0.0016788	12.8685
0.0016885	12.9056
0.00169824	12.9428
0.00170805	12.9801
0.00171791	13.0175
0.00172783	13.0551
0.0017378	13.0927
0.00174783	13.1304
0.00175792	13.1683
0.00176807	13.2062
0.00177828	13.2443
0.00178855	13.2825
0.00179887	13.3208
0.00180926	13.3591
0.0018197	13.3977
0.00183021	13.4363
0.00184077	13.475
0.0018514	13.5138
0.00186209	13.5528
0.00187284	13.5919
0.00188365	13.631
0.00189452	13.6703
0.00190546	13.7097
0.00191646	13.7492
0.00192752	13.7889
0.00193865	13.8286
0.00194984	13.8685
0.0019611	13.9084
0.00197242	13.9485
0.00198381	13.9887
0.00199526	14.0291
0.00200678	14.0695
0.00201837	14.1101
0.00203002	14.1507
0.00204174	14.1915
0.00205353	14.2324
0.00206538	14.2734
0.0020773	14.3146
0.0020893	14.3558
0.00210136	14.3972
0.00211349	14.4387
0.00212569	14.4803
0.00213796	14.5221
0.0021503	14.5639
0.00216272	14.6059
0.0021752	14.648
0.00218776	14.6902
0.00220039	14.7326
0.00221309	14.775
0.00222587	14.8176
0.00223872	14.8603
0.00225165	14.9032
0.00226464	14.9461
0.00227772	14.9892
0.00229087	15.0324
0.00230409	15.0757
0.00231739	15.1192
0.00233077	15.1628
0.00234423	15.2065
0.00235776	15.2503
0.00237137	15.2943
0.00238506	15.3384
0.00239883	15.3826
0.00241268	15.4269
0.00242661	15.4714
0.00244062	15.516
0.00245471	15.5607
0.00246888	15.6055
0.00248313	15.6505
0.00249747	15.6956
0.00251189	15.7409
0.00252639	15.7862
0.00254097	15.8317
0.00255564	15.8774
0.0025704	15.9231
0.00258523	15.969
0.00260016	16.0151
0.00261517	16.0612
0.00263027	16.1075
0.00264545	16.1539
0.00266073	16.2005
0.00267609	16.2472
0.00269153	16.294
0.00270707	16.341
0.0027227	16.3881
0.00273842	16.4353
0.00275423	16.4827
0.00277013	16.5302
0.00278612	16.5779
0.00280221	16.6257
0.00281838	16.6736
0.00283465	16.7216
0.00285102	16.7698
0.00286748	16.8182
0.00288403	16.8666
0.00290068	16.9153
0.00291743	16.964
0.00293427	17.0129
0.00295121	17.062
0.00296825	17.1111
0.00298538	17.1605
0.00300262	17.2099
0.00301995	17.2595
0.00303739	17.3093
0.00305492	17.3592
0.00307256	17.4092
0.0030903	17.4594
0.00310814	17.5097
0.00312608	17.5602
0.00314413	17.6108
0.00316228	17.6615
0.00318053	17.7125
0.0031989	17.7635
0.00321736	17.8147
0.00323594	17.8661
0.00325462	17.9176
0.00327341	17.9692
0.0032923	18.021
0.00331131	18.0729
0.00333043	18.125
0.00334965	18.1773
0.00336899	18.2297
0.00338844	18.2822
0.003408	18.3349
0.00342768	18.3878
0.00344747	18.4408
0.00346737	18.4939
0.00348739	18.5472
0.00350752	18.6007
0.00352777	18.6543
0.00354813	18.7081
0.00356862	18.762
0.00358922	18.8161
0.00360994	18.8703
0.00363078	18.9247
0.00365174	18.9792
0.00367282	19.0339
0.00369403	19.0888
0.00371535	19.1438
0.0037368	19.199
0.00375837	19.2543
0.00378007	19.3098
0.00380189	19.3655
0.00382384	19.4213
0.00384592	19.4773
0.00386812	19.5334
0.00389045	19.5897
0.00391291	19.6462
0.0039355	19.7028
0.00395822	19.7596
0.00398107	19.8166
0.00400405	19.8737
0.00402717	19.931
0.00405042	19.9884
0.0040738	20.046
0.00409732	20.1038
0.00412098	20.1618
0.00414477	20.2199
0.00416869	20.2782
0.00419276	20.3366
0.00421697	20.3952
0.00424131	20.454
0.0042658	20.513
0.00429042	20.5721
0.00431519	20.6314
0.0043401	20.6909
0.00436516	20.7505
0.00439036	20.8103
0.0044157	20.8703
0.0044412	20.9305
0.00446684	20.9908
0.00449262	21.0513
0.00451856	21.112
0.00454465	21.1728
0.00457088	21.2338
0.00459727	21.2951
0.00462381	21.3564
0.0046505	21.418
0.00467735	21.4797
0.00470435	21.5416
0.00473151	21.6037
0.00475883	21.666
0.0047863	21.7284
0.00481393	21.7911
0.00484172	21.8539
0.00486968	21.9169
0.00489779	21.9801
0.00492606	22.0434
0.0049545	22.1069
0.0049831	22.1707
0.00501187	22.2346
0.00504081	22.2987
0.00506991	22.3629
0.00509918	22.4274
0.00512861	22.492
0.00515822	22.5569
0.005188	22.6219
0.00521795	22.6871
0.00524807	22.7525
0.00527837	22.8181
0.00530884	22.8838
0.00533949	22.9498
0.00537032	23.0159
0.00540132	23.0823
0.0054325	23.1488
0.00546387	23.2155
0.00549541	23.2825
0.00552713	23.3496
0.00555904	23.4169
0.00559114	23.4844
0.00562341	23.552
0.00565588	23.6199
0.00568853	23.688
0.00572137	23.7563
0.0057544	23.8248
0.00578762	23.8934
0.00582103	23.9623
0.00585464	24.0314
0.00588844	24.1006
0.00592243	24.1701
0.00595662	24.2398
0.00599101	24.3096
0.0060256	24.3797
0.00606038	24.45
0.00609537	24.5205
0.00613056	24.5911
0.00616595	24.662
0.00620155	24.7331
0.00623735	24.8044
0.00627336	24.8759
0.00630957	24.9476
0.006346	25.0195
0.00638263	25.0916
0.00641948	25.1639
0.00645654	25.2365
0.00649382	25.3092
0.00653131	25.3822
0.00656901	25.4553
0.00660693	25.5287
0.00664508	25.6023
0.00668344	25.6761
0.00672202	25.7501
0.00676083	25.8243
0.00679986	25.8987
0.00683912	25.9734
0.0068786	26.0483
0.00691831	26.1233
0.00695825	26.1986
0.00699842	26.2742
0.00703882	26.3499
0.00707946	26.4258
0.00712033	26.502
0.00716143	26.5784
0.00720278	26.655
0.00724436	26.7318
0.00728618	26.8089
0.00732825	26.8862
0.00737055	26.9637
0.0074131	27.0414
0.0074559	27.1193
0.00749894	27.1975
0.00754223	27.2759
0.00758578	27.3545
0.00762957	27.4333
0.00767361	27.5124
0.00771792	27.5917
0.00776247	27.6712
0.00780728	27.751
0.00785236	27.831
0.00789769	27.9112
0.00794328	27.9917
0.00798914	28.0723
0.00803526	28.1533
0.00808165	28.2344
0.00812831	28.3158
0.00817523	28.3974
0.00822243	28.4793
0.0082699	28.5613
0.00831764	28.6437
0.00836566	28.7262
0.00841395	28.809
0.00846253	28.8921
0.00851138	28.9754
0.00856052	29.0589
0.00860994	29.1426
0.00865964	29.2266
0.00870964	29.3109
0.00875992	29.3954
0.00881049	29.4801
0.00886135	29.5651
0.00891251	29.6503
0.00896396	29.7357
0.00901571	29.8214
0.00906776	29.9074
0.00912011	29.9936
0.00917276	30.0801
0.00922571	30.1668
0.00927897	30.2537
0.00933254	30.3409
0.00938642	30.4284
0.00944061	30.5161
0.00949511	30.604
0.00954993	30.6922
0.00960506	30.7807
0.00966051	30.8694
0.00971628	30.9584
0.00977237	31.0476
0.00982879	31.1371
0.00988553	31.2269
0.0099426	31.3169
0.01	31.4072
0.0100577	31.4977
0.0101158	31.5885
0.0101742	31.6795
0.0102329	31.7708
0.010292	31.8624
0.0103514	31.9543
0.0104112	32.0464
0.0104713	32.1387
0.0105317	32.2314
0.0105925	32.3243
0.0106537	32.4174
0.0107152	32.5109
0.0107771	32.6046
0.0108393	32.6986
0.0109018	32.7928
0.0109648	32.8873
0.0110281	32.9821
0.0110917	33.0772
0.0111558	33.1725
0.0112202	33.2682
0.011285	33.364
0.0113501	33.4602
0.0114156	33.5567
0.0114815	33.6534
0.0115478	33.7504
0.0116145	33.8477
0.0116815	33.9452
0.011749	34.0431
0.0118168	34.1412
0.011885	34.2396
0.0119536	34.3383
0.0120226	34.4373
0.0120921	34.5365
0.0121619	34.6361
0.0122321	34.7359
0.0123027	34.836
0.0123737	34.9364
0.0124451	35.0371
0.012517	35.1381
0.0125893	35.2394
0.0126619	35.341
0.012735	35.4429
0.0128086	35.545
0.0128825	35.6475
0.0129569	35.7502
0.0130317	35.8533
0.0131069	35.9566
0.0131826	36.0602
0.0132587	36.1642
0.0133352	36.2684
0.0134122	36.373
0.0134896	36.4778
0.0135675	36.5829
0.0136458	36.6884
0.0137246	36.7941
0.0138038	36.9002
0.0138835	37.0066
0.0139637	37.1132
0.0140443	37.2202
0.0141254	37.3275
0.0142069	37.4351
0.0142889	37.543
0.0143714	37.6512
0.0144544	37.7597
0.0145378	37.8686
0.0146218	37.9777
0.0147062	38.0872
0.0147911	38.197
0.0148765	38.307
0.0149624	38.4175
0.0150487	38.5282
0.0151356	38.6393
0.015223	38.7506
0.0153109	38.8623
0.0153993	38.9743
0.0154882	39.0867
0.0155776	39.1993
0.0156675	39.3123
0.015758	39.4256
0.0158489	39.5393
0.0159404	39.6532
0.0160325	39.7675
0.016125	39.8822
0.0162181	39.9971
0.0163117	40.1124
0.0164059	40.228
0.0165006	40.344
0.0165959	40.4603
0.0166917	40.5769
0.016788	40.6938
0.016885	40.8111
0.0169824	40.9288
0.0170805	41.0467
0.0171791	41.1651
0.0172783	41.2837
0.017378	41.4027
0.0174783	41.522
0.0175792	41.6417
0.0176807	41.7618
0.0177828	41.8821
0.0178855	42.0028
0.0179887	42.1239
0.0180926	42.2453
0.018197	42.3671
0.0183021	42.4892
0.0184077	42.6117
0.018514	42.7345
0.0186209	42.8577
0.0187284	42.9812
0.0188365	43.1051
0.0189452	43.2293
0.0190546	43.354
0.0191646	43.4789
0.0192752	43.6042
0.0193865	43.7299
0.0194984	43.856
0.019611	43.9824
0.0197242	44.1092
0.0198381	44.2363
0.0199526	44.3638
0.0200678	44.4917
0.0201837	44.6199
0.0203002	44.7485
0.0204174	44.8775
0.0205353	45.0069
0.0206538	45.1366
0.020773	45.2667
0.020893	45.3972
0.0210136	45.528
0.0211349	45.6592
0.0212569	45.7908
0.0213796	45.9228
0.021503	46.0552
0.0216272	46.188
0.021752	46.3211
0.0218776	46.4546
0.0220039	46.5885
0.0221309	46.7228
0.0222587	46.8575
0.0223872	46.9925
0.0225165	47.128
0.0226464	47.2638
0.0227772	47.4
0.0229087	47.5367
0.0230409	47.6737
0.0231739	47.8111
0.0233077	47.9489
0.0234423	48.0871
0.0235776	48.2257
0.0237137	48.3647
0.0238506	48.5041
0.0239883	48.6439
0.0241268	48.7841
0.0242661	48.9248
0.0244062	49.0658
0.0245471	49.2072
0.0246888	49.349
0.0248313	49.4913
0.0249747	49.6339
0.0251189	49.777
0.0252639	49.9205
0.0254097	50.0644
0.0255564	50.2087
0.025704	50.3534
0.0258523	50.4985
0.0260016	50.6441
0.0261517	50.7901
0.0263027	50.9365
0.0264545	51.0833
0.0266073	51.2305
0.0267609	51.3782
0.0269153	51.5263
0.0270707	51.6748
0.027227	51.8237
0.0273842	51.9731
0.0275423	52.1229
0.0277013	52.2732
0.0278612	52.4238
0.0280221	52.5749
0.0281838	52.7265
0.0283465	52.8784
0.0285102	53.0309
0.0286748	53.1837
0.0288403	53.337
0.0290068	53.4908
0.0291743	53.6449
0.0293427	53.7996
0.0295121	53.9546
0.0296825	54.1101
0.0298538	54.2661
0.0300262	54.4225
0.0301995	54.5734
0.0303739	54.7071
0.0305492	54.841
0.0307256	54.9752
0.030903	55.1097
0.0310814	55.2444
0.0312608	55.3794
0.0314413	55.5147
0.0316228	55.6501
0.0318053	55.7859
0.031989	55.9219
0.0321736	56.0581
0.0323594	56.1946
0.0325462	56.3313
0.0327341	56.4683
0.032923	56.6056
0.0331131	56.7431
0.0333043	56.8808
0.0334965	57.0188
0.0336899	57.157
0.0338844	57.2955
0.03408	57.4342
0.0342768	57.5732
0.0344747	57.7124
0.0346737	57.8519
0.0348739	57.9916
0.0350752	58.1316
0.0352777	58.2717
0.0354813	58.4122
0.0356862	58.5529
0.0358922	58.6938
0.0360994	58.8349
0.0363078	58.9763
0.0365174	59.1179
0.0367282	59.2598
0.0369403	59.4019
0.0371535	59.5442
0.037368	59.6868
0.0375837	59.8296
0.0378007	59.9726
0.0380189	60.1159
0.0382384	60.2594
0.0384592	60.4031
0.0386812	60.5471
0.0389045	60.6913
0.0391291	60.8357
0.039355	60.9803
0.0395822	61.1251
0.0398107	61.2702
0.0400405	61.4155
0.0402717	61.561
0.0405042	61.7068
0.040738	61.8527
0.0409732	61.9989
0.0412098	62.1453
0.0414477	62.2919
0.0416869	62.4387
0.0419276	62.5857
0.0421697	62.733
0.0424131	62.8804
0.042658	63.0281
0.0429042	63.176
0.0431519	63.324
0.043401	63.4723
0.0436516	63.6208
0.0439036	63.7694
0.044157	63.9183
0.044412	64.0674
0.0446684	64.2167
0.0449262	64.3661
0.0451856	64.5158
0.0454465	64.6656
0.0457088	64.8157
0.0459727	64.9659
0.0462381	65.1163
0.046505	65.2669
0.0467735	65.4177
0.0470435	65.5686
0.0473151	65.7198
0.0475883	65.8711
0.047863	66.0226
0.0481393	66.1742
0.0484172	66.3261
0.0486968	66.4781
0.0489779	66.6302
0.0492606	66.7826
0.049545	66.9351
0.049831	67.0877
0.0501187	67.2406
0.0504081	67.3935
0.0506991	67.5467
0.0509918	67.7
0.0512861	67.8534
0.0515822	68.007
0.05188	68.1607
0.0521795	68.3146
0.0524807	68.4686
0.0527837	68.6228
0.0530884	68.777
0.0533949	68.9315
0.0537032	69.086
0.0540132	69.2407
0.054325	69.3955
0.0546387	69.5505
0.0549541	69.7055
0.0552713	69.8607
0.0555904	70.016
0.0559114	70.1714
0.0562341	70.3269
0.0565588	70.4825
0.0568853	70.6383
0.0572137	70.7941
0.057544	70.95
0.0578762	71.106
0.0582103	71.2622
0.0585464	71.4184
0.0588844	71.5747
0.0592243	71.731
0.0595662	71.8875
0.0599101	72.044
0.060256	72.2006
0.0606038	72.3573
0.0609537	72.5141
0.0613056	72.6709
0.0616595	72.8278
0.0620155	72.9847
0.0623735	73.1417
0.0627336	73.2987
0.0630957	73.4558
0.06346	73.6129
0.0638263	73.7701
0.0641948	73.9273
0.0645654	74.0845
0.0649382	74.2418
0.0653131	74.3991
0.0656901	74.5564
0.0660693	74.7138
0.0664508	74.8711
0.0668344	75.0284
0.0672202	75.1858
0.0676083	75.3432
0.0679986	75.5005
0.0683912	75.6579
0.068786	75.8152
0.0691831	75.9725
0.0695825	76.1299
0.0699842	76.2871
0.0703882	76.4444
0.0707946	76.6016
0.0712033	76.7588
0.0716143	76.9159
0.0720278	77.073
0.0724436	77.2301
0.0728618	77.3871
0.0732825	77.544
0.0737055	77.7009
0.074131	77.8577
0.074559	78.0144
0.0749894	78.1711
0.0754223	78.3276
0.0758578	78.4841
0.0762957	78.6405
0.0767361	78.7968
0.0771792	78.9529
0.0776247	79.109
0.0780728	79.2649
0.0785236	79.4208
0.0789769	79.5765
0.0794328	79.7321
0.0798914	79.8875
0.0803526	80.0428
0.0808165	80.198
0.0812831	80.353
0.0817523	80.5078
0.0822243	80.6625
0.082699	80.817
0.0831764	80.9713
0.0836566	81.1255
0.0841395	81.2794
0.0846253	81.4332
0.0851138	81.5868
0.0856052	81.7401
0.0860994	81.8933
0.0865964	82.0462
0.0870964	82.199
0.0875992	82.3514
0.0881049	82.5037
0.0886135	82.6557
0.0891251	82.8075
0.0896396	82.959
0.0901571	83.1102
0.0906776	83.2612
0.0912011	83.4119
0.0917276	83.5623
0.0922571	83.7124
0.0927897	83.8623
0.0933254	84.0118
0.0938642	84.161
0.0944061	84.3099
0.0949511	84.4585
0.0954993	84.6068
0.0960506	84.7547
0.0966051	84.9023
0.0971628	85.0495
0.0977237	85.1964
0.0982879	85.3429
0.0988553	85.489
0.099426	85.6347
0.1	85.7801
0.100577	85.9251
0.101158	86.0696
0.101742	86.2138
0.102329	86.3575
0.10292	86.5008
0.103514	86.6437
0.104112	86.7861
0.104713	86.9281
0.105317	87.0696
0.105925	87.2107
0.106537	87.3513
0.107152	87.4914
0.107771	87.631
0.108393	87.7701
0.109018	87.9087
0.109648	88.0469
0.110281	88.1844
0.110917	88.3215
0.111558	88.458
0.112202	88.594
0.11285	88.7294
0.113501	88.8642
0.114156	88.9985
0.114815	89.1322
0.115478	89.2653
0.116145	89.3978
0.116815	89.5297
0.11749	89.661
0.118168	89.7916
0.11885	89.9216
0.119536	90.051
0.120226	90.1797
0.120921	90.3078
0.121619	90.4352
0.122321	90.5619
0.123027	90.688
0.123737	90.8133
0.124451	90.9379
0.12517	91.0618
0.125893	91.185
0.126619	91.3075
0.12735	91.4292
0.128086	91.5502
0.128825	91.6704
0.129569	91.7898
0.130317	91.9084
0.131069	92.0263
0.131826	92.1434
0.132587	92.2596
0.133352	92.375
0.134122	92.4896
0.134896	92.6034
0.135675	92.7163
0.136458	92.8284
0.137246	92.9396
0.138038	93.0499
0.138835	93.1593
0.139637	93.2679
0.140443	93.3755
0.141254	93.4822
0.142069	93.588
0.142889	93.6929
0.143714	93.7968
0.144544	93.8998
0.145378	94.0017
0.146218	94.1028
0.147062	94.2028
0.147911	94.3019
0.148765	94.3999
0.149624	94.4969
0.150487	94.5929
0.151356	94.6879
0.15223	94.7818
0.153109	94.8747
0.153993	94.9665
0.154882	95.0573
0.155776	95.147
0.156675	95.2355
0.15758	95.323
0.158489	95.4094
0.159404	95.4946
0.160325	95.5787
0.16125	95.6617
0.162181	95.7435
0.163117	95.8241
0.164059	95.9036
0.165006	95.9819
0.165959	96.059
0.166917	96.135
0.16788	96.2097
0.16885	96.2832
0.169824	96.3554
0.170805	96.4264
0.171791	96.4962
0.172783	96.5647
0.17378	96.632
0.174783	96.698
0.175792	96.7627
0.176807	96.8261
0.177828	96.8882
0.178855	96.9489
0.179887	97.0084
0.180926	97.0665
0.18197	97.1233
0.183021	97.1788
0.184077	97.2328
0.18514	97.2855
0.186209	97.3369
0.187284	97.3868
0.188365	97.4354
0.189452	97.4825
0.190546	97.5283
0.191646	97.5726
0.192752	97.6155
0.193865	97.657
0.194984	97.697
0.19611	97.7355
0.197242	97.7726
0.198381	97.8082
0.199526	97.8424
0.200678	97.8751
0.201837	97.9062
0.203002	97.9359
0.204174	97.964
0.205353	97.9907
0.206538	98.0158
0.20773	98.0394
0.20893	98.0614
0.210136	98.0819
0.211349	98.1008
0.212569	98.1182
0.213796	98.134
0.21503	98.1482
0.216272	98.1608
0.21752	98.1719
0.218776	98.1814
0.220039	98.1892
0.221309	98.1955
0.222587	98.2001
0.223872	98.2031
0.225165	98.2045
0.226464	98.2042
0.227772	98.2023
0.229087	98.1988
0.230409	98.1936
0.231739	98.1868
0.233077	98.1783
0.234423	98.1681
0.235776	98.1563
0.237137	98.1428
0.238506	98.1276
0.239883	98.1107
0.241268	98.0921
0.242661	98.0718
0.244062	98.0499
0.245471	98.0262
0.246888	98.0008
0.248313	97.9738
0.249747	97.945
0.251189	97.9145
0.252639	97.8822
0.254097	97.8483
0.255564	97.8126
0.25704	97.7752
0.258523	97.736
0.260016	97.6952
0.261517	97.6526
0.263027	97.6082
0.264545	97.5621
0.266073	97.5143
0.267609	97.4647
0.269153	97.4134
0.270707	97.3603
0.27227	97.3055
0.273842	97.249
0.275423	97.1907
0.277013	97.1306
0.278612	97.0688
0.280221	97.0052
0.281838	96.9399
0.283465	96.8729
0.285102	96.8041
0.286748	96.7335
0.288403	96.6612
0.290068	96.5872
0.291743	96.5114
0.293427	96.4338
0.295121	96.3545
0.296825	96.2735
0.298538	96.1907
0.300262	96.1062
0.301995	96.02
0.303739	95.932
0.305492	95.8423
0.307256	95.7509
0.30903	95.6577
0.310814	95.5628
0.312608	95.4662
0.314413	95.3679
0.316228	95.2679
0.318053	95.1662
0.31989	95.0628
0.321736	94.9576
0.323594	94.8508
0.325462	94.7423
0.327341	94.6321
0.32923	94.5202
0.331131	94.4067
0.333043	94.2915
0.334965	94.1746
0.336899	94.0561
0.338844	93.9359
0.3408	93.8141
0.342768	93.6906
0.344747	93.5655
0.346737	93.4388
0.348739	93.3105
0.350752	93.1805
0.352777	93.049
0.354813	92.9159
0.356862	92.7811
0.358922	92.6448
0.360994	92.507
0.363078	92.3676
0.365174	92.2266
0.367282	92.0841
0.369403	91.94
0.371535	91.7944
0.37368	91.6473
0.375837	91.4987
0.378007	91.3486
0.380189	91.1971
0.382384	91.044
0.384592	90.8895
0.386812	90.7335
0.389045	90.5761
0.391291	90.4172
0.39355	90.257
0.395822	90.0953
0.398107	89.9322
0.400405	89.7677
0.402717	89.6019
0.405042	89.4346
0.40738	89.2661
0.409732	89.0962
0.412098	88.9249
0.414477	88.7523
0.416869	88.5785
0.419276	88.4033
0.421697	88.2269
0.424131	88.0492
0.42658	87.8702
0.429042	87.69
0.431519	87.5086
0.43401	87.326
0.436516	87.1422
0.439036	86.9572
0.44157	86.771
0.44412	86.5836
0.446684	86.3951
0.449262	86.2055
0.451856	86.0148
0.454465	85.823
0.457088	85.63
0.459727	85.4361
0.462381	85.241
0.46505	85.0449
0.467735	84.8478
0.470435	84.6497
0.473151	84.4506
0.475883	84.2505
0.47863	84.0494
0.481393	83.8474
0.484172	83.6444
0.486968	83.4406
0.489779	83.2358
0.492606	83.0301
0.49545	82.8236
0.49831	82.6162
0.501187	82.408
0.504081	82.1989
0.506991	81.989
0.509918	81.7784
0.512861	81.5669
0.515822	81.3547
0.5188	81.1418
0.521795	80.9281
0.524807	80.7137
0.527837	80.4986
0.530884	80.2828
0.533949	80.0664
0.537032	79.8493
0.540132	79.6316
0.54325	79.4132
0.546387	79.1943
0.549541	78.9747
0.552713	78.7546
0.555904	78.534
0.559114	78.3128
0.562341	78.0911
0.565588	77.8689
0.568853	77.6462
0.572137	77.423
0.57544	77.1994
0.578762	76.9753
0.582103	76.7508
0.585464	76.5259
0.588844	76.3006
0.592243	76.0749
0.595662	75.8489
0.599101	75.6225
0.60256	75.3958
0.606038	75.1687
0.609537	74.9414
0.613056	74.7138
