Stopping power dEdx from Ionisation for V51[0.0] Z = 23 in G4_TISSUE_SOFT_ICRP, process name: ionIoni
E [MeV]	dEdx [MeV/mm]
0.001	65.361
0.00100577	65.5494
0.00101158	65.7384
0.00101742	65.9278
0.00102329	66.1179
0.0010292	66.3085
0.00103514	66.4996
0.00104112	66.6913
0.00104713	66.8835
0.00105317	67.0763
0.00105925	67.2696
0.00106537	67.4635
0.00107152	67.658
0.00107771	67.853
0.00108393	68.0486
0.00109018	68.2447
0.00109648	68.4414
0.00110281	68.6387
0.00110917	68.8365
0.00111558	69.0349
0.00112202	69.2339
0.0011285	69.4335
0.00113501	69.6336
0.00114156	69.8343
0.00114815	70.0356
0.00115478	70.2375
0.00116145	70.4399
0.00116815	70.643
0.0011749	70.8466
0.00118168	71.0508
0.0011885	71.2556
0.00119536	71.461
0.00120226	71.6669
0.00120921	71.8735
0.00121619	72.0807
0.00122321	72.2884
0.00123027	72.4968
0.00123737	72.7058
0.00124451	72.9153
0.0012517	73.1255
0.00125893	73.3363
0.00126619	73.5477
0.0012735	73.7597
0.00128086	73.9723
0.00128825	74.1855
0.00129569	74.3993
0.00130317	74.6138
0.00131069	74.8288
0.00131826	75.0445
0.00132587	75.2608
0.00133352	75.4777
0.00134122	75.6953
0.00134896	75.9135
0.00135675	76.1323
0.00136458	76.3517
0.00137246	76.5718
0.00138038	76.7925
0.00138835	77.0139
0.00139637	77.2358
0.00140443	77.4585
0.00141254	77.6817
0.00142069	77.9056
0.00142889	78.1302
0.00143714	78.3554
0.00144544	78.5812
0.00145378	78.8077
0.00146218	79.0349
0.00147062	79.2627
0.00147911	79.4912
0.00148765	79.7203
0.00149624	79.9501
0.00150487	80.1805
0.00151356	80.4116
0.0015223	80.6434
0.00153109	80.8759
0.00153993	81.109
0.00154882	81.3428
0.00155776	81.5772
0.00156675	81.8124
0.0015758	82.0482
0.00158489	82.2847
0.00159404	82.5218
0.00160325	82.7597
0.0016125	82.9982
0.00162181	83.2375
0.00163117	83.4774
0.00164059	83.718
0.00165006	83.9593
0.00165959	84.2013
0.00166917	84.444
0.0016788	84.6874
0.0016885	84.9315
0.00169824	85.1763
0.00170805	85.4218
0.00171791	85.6681
0.00172783	85.915
0.0017378	86.1626
0.00174783	86.411
0.00175792	86.66
0.00176807	86.9098
0.00177828	87.1603
0.00178855	87.4116
0.00179887	87.6635
0.00180926	87.9162
0.0018197	88.1696
0.00183021	88.4237
0.00184077	88.6786
0.0018514	88.9342
0.00186209	89.1906
0.00187284	89.4476
0.00188365	89.7055
0.00189452	89.964
0.00190546	90.2233
0.00191646	90.4834
0.00192752	90.7442
0.00193865	91.0058
0.00194984	91.2681
0.0019611	91.5311
0.00197242	91.795
0.00198381	92.0596
0.00199526	92.3249
0.00200678	92.591
0.00201837	92.8579
0.00203002	93.1256
0.00204174	93.394
0.00205353	93.6632
0.00206538	93.9332
0.0020773	94.2039
0.0020893	94.4754
0.00210136	94.7477
0.00211349	95.0208
0.00212569	95.2947
0.00213796	95.5694
0.0021503	95.8449
0.00216272	96.1211
0.0021752	96.3982
0.00218776	96.6761
0.00220039	96.9547
0.00221309	97.2342
0.00222587	97.5144
0.00223872	97.7955
0.00225165	98.0774
0.00226464	98.3601
0.00227772	98.6436
0.00229087	98.9279
0.00230409	99.2131
0.00231739	99.499
0.00233077	99.7858
0.00234423	100.073
0.00235776	100.362
0.00237137	100.651
0.00238506	100.941
0.00239883	101.232
0.00241268	101.524
0.00242661	101.817
0.00244062	102.11
0.00245471	102.404
0.00246888	102.7
0.00248313	102.996
0.00249747	103.293
0.00251189	103.59
0.00252639	103.889
0.00254097	104.188
0.00255564	104.489
0.0025704	104.79
0.00258523	105.092
0.00260016	105.395
0.00261517	105.699
0.00263027	106.003
0.00264545	106.309
0.00266073	106.615
0.00267609	106.922
0.00269153	107.231
0.00270707	107.54
0.0027227	107.85
0.00273842	108.161
0.00275423	108.472
0.00277013	108.785
0.00278612	109.099
0.00280221	109.413
0.00281838	109.728
0.00283465	110.045
0.00285102	110.362
0.00286748	110.68
0.00288403	110.999
0.00290068	111.319
0.00291743	111.64
0.00293427	111.962
0.00295121	112.284
0.00296825	112.608
0.00298538	112.932
0.00300262	113.258
0.00301995	113.584
0.00303739	113.912
0.00305492	114.24
0.00307256	114.569
0.0030903	114.9
0.00310814	115.231
0.00312608	115.563
0.00314413	115.896
0.00316228	116.23
0.00318053	116.565
0.0031989	116.901
0.00321736	117.238
0.00323594	117.576
0.00325462	117.915
0.00327341	118.255
0.0032923	118.596
0.00331131	118.938
0.00333043	119.28
0.00334965	119.624
0.00336899	119.969
0.00338844	120.315
0.003408	120.662
0.00342768	121.009
0.00344747	121.358
0.00346737	121.708
0.00348739	122.059
0.00350752	122.411
0.00352777	122.763
0.00354813	123.117
0.00356862	123.472
0.00358922	123.828
0.00360994	124.185
0.00363078	124.543
0.00365174	124.902
0.00367282	125.262
0.00369403	125.623
0.00371535	125.985
0.0037368	126.348
0.00375837	126.712
0.00378007	127.078
0.00380189	127.444
0.00382384	127.811
0.00384592	128.18
0.00386812	128.549
0.00389045	128.92
0.00391291	129.291
0.0039355	129.664
0.00395822	130.038
0.00398107	130.412
0.00400405	130.788
0.00402717	131.165
0.00405042	131.543
0.0040738	131.923
0.00409732	132.303
0.00412098	132.684
0.00414477	133.067
0.00416869	133.45
0.00419276	133.835
0.00421697	134.221
0.00424131	134.607
0.0042658	134.995
0.00429042	135.384
0.00431519	135.775
0.0043401	136.166
0.00436516	136.559
0.00439036	136.952
0.0044157	137.347
0.0044412	137.743
0.00446684	138.14
0.00449262	138.538
0.00451856	138.937
0.00454465	139.338
0.00457088	139.739
0.00459727	140.142
0.00462381	140.546
0.0046505	140.951
0.00467735	141.358
0.00470435	141.765
0.00473151	142.174
0.00475883	142.583
0.0047863	142.994
0.00481393	143.407
0.00484172	143.82
0.00486968	144.234
0.00489779	144.65
0.00492606	145.067
0.0049545	145.485
0.0049831	145.905
0.00501187	146.325
0.00504081	146.747
0.00506991	147.17
0.00509918	147.594
0.00512861	148.019
0.00515822	148.446
0.005188	148.874
0.00521795	149.303
0.00524807	149.733
0.00527837	150.165
0.00530884	150.598
0.00533949	151.032
0.00537032	151.467
0.00540132	151.904
0.0054325	152.342
0.00546387	152.781
0.00549541	153.221
0.00552713	153.663
0.00555904	154.106
0.00559114	154.55
0.00562341	154.995
0.00565588	155.442
0.00568853	155.89
0.00572137	156.34
0.0057544	156.79
0.00578762	157.242
0.00582103	157.695
0.00585464	158.15
0.00588844	158.606
0.00592243	159.063
0.00595662	159.521
0.00599101	159.981
0.0060256	160.442
0.00606038	160.905
0.00609537	161.369
0.00613056	161.834
0.00616595	162.3
0.00620155	162.768
0.00623735	163.237
0.00627336	163.708
0.00630957	164.179
0.006346	164.653
0.00638263	165.127
0.00641948	165.603
0.00645654	166.081
0.00649382	166.559
0.00653131	167.039
0.00656901	167.521
0.00660693	168.004
0.00664508	168.488
0.00668344	168.974
0.00672202	169.461
0.00676083	169.949
0.00679986	170.439
0.00683912	170.93
0.0068786	171.423
0.00691831	171.917
0.00695825	172.413
0.00699842	172.91
0.00703882	173.408
0.00707946	173.908
0.00712033	174.409
0.00716143	174.912
0.00720278	175.416
0.00724436	175.921
0.00728618	176.429
0.00732825	176.937
0.00737055	177.447
0.0074131	177.959
0.0074559	178.472
0.00749894	178.986
0.00754223	179.502
0.00758578	180.019
0.00762957	180.538
0.00767361	181.058
0.00771792	181.58
0.00776247	182.104
0.00780728	182.629
0.00785236	183.155
0.00789769	183.683
0.00794328	184.212
0.00798914	184.743
0.00803526	185.276
0.00808165	185.81
0.00812831	186.345
0.00817523	186.883
0.00822243	187.421
0.0082699	187.962
0.00831764	188.503
0.00836566	189.047
0.00841395	189.592
0.00846253	190.138
0.00851138	190.686
0.00856052	191.236
0.00860994	191.787
0.00865964	192.34
0.00870964	192.894
0.00875992	193.45
0.00881049	194.008
0.00886135	194.567
0.00891251	195.128
0.00896396	195.69
0.00901571	196.254
0.00906776	196.82
0.00912011	197.387
0.00917276	197.956
0.00922571	198.527
0.00927897	199.099
0.00933254	199.673
0.00938642	200.248
0.00944061	200.826
0.00949511	201.404
0.00954993	201.985
0.00960506	202.567
0.00966051	203.151
0.00971628	203.737
0.00977237	204.324
0.00982879	204.913
0.00988553	205.503
0.0099426	206.096
0.01	206.69
0.0100577	207.285
0.0101158	207.883
0.0101742	208.482
0.0102329	209.083
0.010292	209.686
0.0103514	210.29
0.0104112	210.896
0.0104713	211.504
0.0105317	212.114
0.0105925	212.725
0.0106537	213.338
0.0107152	213.953
0.0107771	214.57
0.0108393	215.188
0.0109018	215.809
0.0109648	216.431
0.0110281	217.055
0.0110917	217.68
0.0111558	218.308
0.0112202	218.937
0.011285	219.568
0.0113501	220.201
0.0114156	220.836
0.0114815	221.472
0.0115478	222.11
0.0116145	222.751
0.0116815	223.393
0.011749	224.037
0.0118168	224.682
0.011885	225.33
0.0119536	225.979
0.0120226	226.631
0.0120921	227.284
0.0121619	227.939
0.0122321	228.596
0.0123027	229.255
0.0123737	229.916
0.0124451	230.579
0.012517	231.243
0.0125893	231.91
0.0126619	232.578
0.012735	233.247
0.0128086	233.903
0.0128825	234.561
0.0129569	235.221
0.0130317	235.882
0.0131069	236.546
0.0131826	237.212
0.0132587	237.879
0.0133352	238.548
0.0134122	239.22
0.0134896	239.893
0.0135675	240.568
0.0136458	241.245
0.0137246	241.924
0.0138038	242.605
0.0138835	243.288
0.0139637	243.973
0.0140443	244.66
0.0141254	245.349
0.0142069	246.04
0.0142889	246.733
0.0143714	247.428
0.0144544	248.125
0.0145378	248.823
0.0146218	249.524
0.0147062	250.227
0.0147911	250.932
0.0148765	251.639
0.0149624	252.348
0.0150487	253.059
0.0151356	253.772
0.015223	254.487
0.0153109	255.205
0.0153993	255.924
0.0154882	256.645
0.0155776	257.369
0.0156675	258.094
0.015758	258.822
0.0158489	259.552
0.0159404	260.283
0.0160325	261.017
0.016125	261.753
0.0162181	262.492
0.0163117	263.232
0.0164059	263.974
0.0165006	264.719
0.0165959	265.466
0.0166917	266.215
0.016788	266.966
0.016885	267.719
0.0169824	268.474
0.0170805	269.232
0.0171791	269.992
0.0172783	270.754
0.017378	271.518
0.0174783	272.284
0.0175792	273.053
0.0176807	273.824
0.0177828	274.597
0.0178855	275.372
0.0179887	276.149
0.0180926	276.929
0.018197	277.711
0.0183021	278.495
0.0184077	279.282
0.018514	280.071
0.0186209	280.862
0.0187284	281.655
0.0188365	282.451
0.0189452	283.249
0.0190546	284.049
0.0191646	284.852
0.0192752	285.657
0.0193865	286.464
0.0194984	287.274
0.019611	288.085
0.0197242	288.9
0.0198381	289.716
0.0199526	290.535
0.0200678	291.357
0.0201837	292.18
0.0203002	293.007
0.0204174	293.835
0.0205353	294.666
0.0206538	295.499
0.020773	296.335
0.020893	297.173
0.0210136	298.014
0.0211349	298.857
0.0212569	299.702
0.0213796	300.55
0.021503	301.4
0.0216272	302.253
0.021752	303.109
0.0218776	303.966
0.0220039	304.827
0.0221309	305.689
0.0222587	306.555
0.0223872	307.422
0.0225165	308.293
0.0226464	309.165
0.0227772	310.041
0.0229087	310.919
0.0230409	311.799
0.0231739	312.682
0.0233077	313.567
0.0234423	314.455
0.0235776	315.346
0.0237137	316.239
0.0238506	317.135
0.0239883	318.034
0.0241268	318.935
0.0242661	319.838
0.0244062	320.745
0.0245471	321.653
0.0246888	322.565
0.0248313	323.479
0.0249747	324.396
0.0251189	325.316
0.0252639	326.238
0.0254097	327.162
0.0255564	328.09
0.025704	329.02
0.0258523	329.953
0.0260016	330.889
0.0261517	331.827
0.0263027	332.768
0.0264545	333.712
0.0266073	334.659
0.0267609	335.608
0.0269153	336.56
0.0270707	337.515
0.027227	338.472
0.0273842	339.433
0.0275423	340.396
0.0277013	341.362
0.0278612	342.33
0.0280221	343.302
0.0281838	344.276
0.0283465	345.254
0.0285102	346.234
0.0286748	347.217
0.0288403	348.203
0.0290068	349.191
0.0291743	350.183
0.0293427	351.177
0.0295121	352.174
0.0296825	353.175
0.0298538	354.178
0.0300262	355.184
0.0301995	356.193
0.0303739	357.205
0.0305492	358.219
0.0307256	359.237
0.030903	360.258
0.0310814	361.282
0.0312608	362.308
0.0314413	363.338
0.0316228	364.371
0.0318053	365.406
0.031989	366.445
0.0321736	367.487
0.0323594	368.532
0.0325462	369.579
0.0327341	370.63
0.032923	371.684
0.0331131	372.741
0.0333043	373.801
0.0334965	374.864
0.0336899	375.931
0.0338844	377
0.03408	378.072
0.0342768	379.148
0.0344747	380.227
0.0346737	381.309
0.0348739	382.394
0.0350752	383.482
0.0352777	384.573
0.0354813	385.668
0.0356862	386.766
0.0358922	387.867
0.0360994	388.971
0.0363078	390.078
0.0365174	391.189
0.0367282	392.302
0.0369403	393.42
0.0371535	394.54
0.037368	395.663
0.0375837	396.79
0.0378007	397.921
0.0380189	399.054
0.0382384	400.191
0.0384592	401.331
0.0386812	402.474
0.0389045	403.621
0.0391291	404.771
0.039355	405.925
0.0395822	407.082
0.0398107	408.242
0.0400405	409.405
0.0402717	410.572
0.0405042	411.743
0.040738	412.917
0.0409732	414.094
0.0412098	415.274
0.0414477	416.459
0.0416869	417.646
0.0419276	418.837
0.0421697	420.032
0.0424131	421.23
0.042658	422.431
0.0429042	423.636
0.0431519	424.845
0.043401	426.057
0.0436516	427.273
0.0439036	428.492
0.044157	429.715
0.044412	430.941
0.0446684	432.171
0.0449262	433.404
0.0451856	434.642
0.0454465	435.882
0.0457088	437.127
0.0459727	438.375
0.0462381	439.626
0.046505	440.882
0.0467735	442.141
0.0470435	443.403
0.0473151	444.67
0.0475883	445.94
0.047863	447.214
0.0481393	448.491
0.0484172	449.772
0.0486968	451.057
0.0489779	452.346
0.0492606	453.639
0.049545	454.935
0.049831	456.235
0.0501187	457.539
0.0504081	458.847
0.0506991	460.158
0.0509918	461.265
0.0512861	461.571
0.0515822	461.88
0.05188	462.193
0.0521795	462.508
0.0524807	462.827
0.0527837	463.149
0.0530884	463.474
0.0533949	463.802
0.0537032	464.134
0.0540132	464.468
0.054325	464.805
0.0546387	465.145
0.0549541	465.488
0.0552713	465.834
0.0555904	466.182
0.0559114	466.533
0.0562341	466.887
0.0565588	467.244
0.0568853	467.603
0.0572137	467.965
0.057544	468.33
0.0578762	468.697
0.0582103	469.066
0.0585464	469.438
0.0588844	469.813
0.0592243	470.19
0.0595662	470.569
0.0599101	470.951
0.060256	471.335
0.0606038	471.721
0.0609537	472.11
0.0613056	472.501
0.0616595	472.894
0.0620155	473.29
0.0623735	473.687
0.0627336	474.087
0.0630957	474.489
0.06346	474.893
0.0638263	475.299
0.0641948	475.708
0.0645654	476.118
0.0649382	476.53
0.0653131	476.945
0.0656901	477.361
0.0660693	477.779
0.0664508	478.2
0.0668344	478.622
0.0672202	479.046
0.0676083	479.472
0.0679986	479.9
0.0683912	480.33
0.068786	480.762
0.0691831	481.196
0.0695825	481.631
0.0699842	482.069
0.0703882	482.508
0.0707946	482.949
0.0712033	483.391
0.0716143	483.836
0.0720278	484.282
0.0724436	484.73
0.0728618	485.18
0.0732825	485.631
0.0737055	486.084
0.074131	486.539
0.074559	486.996
0.0749894	487.454
0.0754223	487.914
0.0758578	488.376
0.0762957	488.839
0.0767361	489.304
0.0771792	489.77
0.0776247	490.239
0.0780728	490.709
0.0785236	491.18
0.0789769	491.653
0.0794328	492.128
0.0798914	492.604
0.0803526	493.082
0.0808165	493.562
0.0812831	494.043
0.0817523	494.525
0.0822243	495.01
0.082699	495.496
0.0831764	495.983
0.0836566	496.472
0.0841395	496.963
0.0846253	497.455
0.0851138	497.949
0.0856052	498.444
0.0860994	498.941
0.0865964	499.439
0.0870964	499.939
0.0875992	500.441
0.0881049	500.944
0.0886135	501.449
0.0891251	501.955
0.0896396	502.463
0.0901571	502.972
0.0906776	503.483
0.0912011	503.996
0.0917276	504.51
0.0922571	505.026
0.0927897	505.543
0.0933254	506.062
0.0938642	506.582
0.0944061	507.104
0.0949511	507.628
0.0954993	508.153
0.0960506	508.68
0.0966051	509.208
0.0971628	509.738
0.0977237	510.269
0.0982879	510.802
0.0988553	511.337
0.099426	511.873
0.1	512.411
0.100577	512.951
0.101158	513.492
0.101742	514.035
0.102329	514.579
0.10292	515.125
0.103514	515.673
0.104112	516.222
0.104713	516.773
0.105317	517.326
0.105925	517.88
0.106537	518.437
0.107152	518.994
0.107771	519.554
0.108393	520.115
0.109018	520.678
0.109648	521.242
0.110281	521.808
0.110917	522.376
0.111558	522.946
0.112202	523.517
0.11285	524.091
0.113501	524.665
0.114156	525.242
0.114815	525.821
0.115478	526.401
0.116145	526.983
0.116815	527.567
0.11749	528.153
0.118168	528.74
0.11885	529.329
0.119536	529.92
0.120226	530.513
0.120921	531.108
0.121619	531.705
0.122321	532.304
0.123027	532.904
0.123737	533.507
0.124451	534.111
0.12517	534.717
0.125893	535.325
0.126619	535.935
0.12735	536.547
0.128086	537.161
0.128825	537.777
0.129569	538.395
0.130317	539.015
0.131069	539.637
0.131826	540.261
0.132587	540.887
0.133352	541.515
0.134122	542.145
0.134896	542.777
0.135675	543.411
0.136458	544.047
0.137246	544.686
0.138038	545.326
0.138835	545.969
0.139637	546.614
0.140443	547.26
0.141254	547.909
0.142069	548.561
0.142889	549.214
0.143714	549.87
0.144544	550.527
0.145378	551.187
0.146218	551.85
0.147062	552.514
0.147911	553.181
0.148765	553.85
0.149624	554.521
0.150487	555.194
0.151356	555.87
0.15223	556.548
0.153109	557.229
0.153993	557.912
0.154882	558.597
0.155776	559.285
0.156675	559.975
0.15758	560.667
0.158489	561.362
0.159404	562.059
0.160325	562.759
0.16125	563.461
0.162181	564.165
0.163117	564.872
0.164059	565.582
0.165006	566.294
0.165959	567.008
0.166917	567.726
0.16788	568.445
0.16885	569.167
0.169824	569.892
0.170805	570.62
0.171791	571.35
0.172783	572.082
0.17378	572.817
0.174783	573.555
0.175792	574.296
0.176807	575.039
0.177828	575.785
0.178855	576.533
0.179887	577.285
0.180926	578.039
0.18197	578.796
0.183021	579.555
0.184077	580.317
0.18514	581.083
0.186209	581.85
0.187284	582.621
0.188365	583.395
0.189452	584.171
0.190546	584.95
0.191646	585.733
0.192752	586.518
0.193865	587.305
0.194984	588.096
0.19611	588.89
0.197242	589.687
0.198381	590.486
0.199526	591.289
0.200678	592.095
0.201837	592.903
0.203002	593.715
0.204174	594.53
0.205353	595.348
0.206538	596.168
0.20773	596.992
0.20893	597.819
0.210136	598.649
0.211349	599.483
0.212569	600.319
0.213796	601.158
0.21503	602.001
0.216272	602.847
0.21752	603.696
0.218776	604.548
0.220039	605.404
0.221309	606.262
0.222587	607.124
0.223872	607.989
0.225165	608.858
0.226464	609.73
0.227772	610.605
0.229087	611.483
0.230409	612.365
0.231739	613.25
0.233077	614.139
0.234423	615.031
0.235776	615.926
0.237137	616.825
0.238506	617.727
0.239883	618.632
0.241268	619.541
0.242661	620.454
0.244062	621.37
0.245471	622.289
0.246888	623.212
0.248313	624.139
0.249747	625.069
0.251189	626.003
0.252639	626.94
0.254097	627.881
0.255564	628.825
0.25704	629.773
0.258523	630.725
0.260016	631.68
0.261517	632.639
0.263027	633.602
0.264545	634.568
0.266073	635.538
0.267609	636.512
0.269153	637.489
0.270707	638.471
0.27227	639.456
0.273842	640.444
0.275423	641.437
0.277013	642.433
0.278612	643.434
0.280221	644.438
0.281838	645.446
0.283465	646.457
0.285102	647.473
0.286748	648.493
0.288403	649.516
0.290068	650.543
0.291743	651.575
0.293427	652.61
0.295121	653.649
0.296825	654.692
0.298538	655.74
0.300262	656.791
0.301995	657.846
0.303739	658.905
0.305492	659.969
0.307256	661.036
0.30903	662.107
0.310814	663.183
0.312608	664.263
0.314413	665.346
0.316228	666.434
0.318053	667.526
0.31989	668.623
0.321736	669.723
0.323594	670.828
0.325462	671.936
0.327341	673.049
0.32923	674.166
0.331131	675.288
0.333043	676.414
0.334965	677.544
0.336899	678.678
0.338844	679.816
0.3408	680.959
0.342768	682.107
0.344747	683.258
0.346737	684.414
0.348739	685.574
0.350752	686.739
0.352777	687.908
0.354813	689.081
0.356862	690.259
0.358922	691.441
0.360994	692.628
0.363078	693.819
0.365174	695.015
0.367282	696.215
0.369403	697.42
0.371535	698.629
0.37368	699.843
0.375837	701.061
0.378007	702.283
0.380189	703.511
0.382384	704.743
0.384592	705.979
0.386812	707.22
0.389045	708.466
0.391291	709.716
0.39355	710.971
0.395822	712.231
0.398107	713.495
0.400405	714.764
0.402717	716.037
0.405042	717.316
0.40738	718.599
0.409732	719.886
0.412098	721.179
0.414477	722.476
0.416869	723.778
0.419276	725.085
0.421697	726.396
0.424131	727.712
0.42658	729.033
0.429042	730.359
0.431519	731.69
0.43401	733.026
0.436516	734.366
0.439036	735.711
0.44157	737.061
0.44412	738.416
0.446684	739.776
0.449262	741.141
0.451856	742.511
0.454465	743.885
0.457088	745.265
0.459727	746.65
0.462381	748.039
0.46505	749.434
0.467735	750.833
0.470435	752.237
0.473151	753.647
0.475883	755.061
0.47863	756.481
0.481393	757.905
0.484172	759.335
0.486968	760.769
0.489779	762.209
0.492606	763.653
0.49545	765.103
0.49831	766.558
0.501187	768.018
0.504081	769.483
0.506991	770.953
0.509918	772.428
0.512861	773.909
0.515822	775.394
0.5188	776.885
0.521795	778.381
0.524807	779.882
0.527837	781.388
0.530884	782.899
0.533949	784.416
0.537032	785.938
0.540132	787.464
0.54325	788.997
0.546387	790.534
0.549541	792.076
0.552713	793.624
0.555904	795.177
0.559114	796.736
0.562341	798.299
0.565588	799.868
0.568853	801.442
0.572137	803.021
0.57544	804.606
0.578762	806.196
0.582103	807.791
0.585464	809.392
0.588844	810.997
0.592243	812.608
0.595662	814.225
0.599101	815.846
0.60256	817.474
0.606038	819.106
0.609537	820.744
