E [MeV]	dEdx [keV/microm]
0.001	22.9542
0.00100577	23.0208
0.00101158	23.0875
0.00101742	23.1545
0.00102329	23.2216
0.0010292	23.2889
0.00103514	23.3564
0.00104112	23.4241
0.00104713	23.492
0.00105317	23.5601
0.00105925	23.6284
0.00106537	23.6969
0.00107152	23.7656
0.00107771	23.8345
0.00108393	23.9036
0.00109018	23.9729
0.00109648	24.0423
0.00110281	24.112
0.00110917	24.1819
0.00111558	24.252
0.00112202	24.3223
0.0011285	24.3928
0.00113501	24.4635
0.00114156	24.5344
0.00114815	24.6055
0.00115478	24.6768
0.00116145	24.7483
0.00116815	24.82
0.0011749	24.8919
0.00118168	24.9641
0.0011885	25.0364
0.00119536	25.1089
0.00120226	25.1817
0.00120921	25.2547
0.00121619	25.3279
0.00122321	25.4012
0.00123027	25.4748
0.00123737	25.5486
0.00124451	25.6227
0.0012517	25.6969
0.00125893	25.7714
0.00126619	25.846
0.0012735	25.9209
0.00128086	25.996
0.00128825	26.0713
0.00129569	26.1469
0.00130317	26.2226
0.00131069	26.2986
0.00131826	26.3747
0.00132587	26.4512
0.00133352	26.5278
0.00134122	26.6046
0.00134896	26.6817
0.00135675	26.759
0.00136458	26.8365
0.00137246	26.9142
0.00138038	26.9922
0.00138835	27.0704
0.00139637	27.1488
0.00140443	27.2275
0.00141254	27.3063
0.00142069	27.3854
0.00142889	27.4647
0.00143714	27.5443
0.00144544	27.624
0.00145378	27.704
0.00146218	27.7843
0.00147062	27.8648
0.00147911	27.9455
0.00148765	28.0264
0.00149624	28.1076
0.00150487	28.189
0.00151356	28.2706
0.0015223	28.3525
0.00153109	28.4346
0.00153993	28.5169
0.00154882	28.5995
0.00155776	28.6823
0.00156675	28.7654
0.0015758	28.8487
0.00158489	28.9322
0.00159404	29.016
0.00160325	29.1
0.0016125	29.1843
0.00162181	29.2688
0.00163117	29.3535
0.00164059	29.4385
0.00165006	29.5238
0.00165959	29.6092
0.00166917	29.695
0.0016788	29.7809
0.0016885	29.8672
0.00169824	29.9536
0.00170805	30.0404
0.00171791	30.1273
0.00172783	30.2146
0.0017378	30.302
0.00174783	30.3898
0.00175792	30.4777
0.00176807	30.566
0.00177828	30.6544
0.00178855	30.7432
0.00179887	30.8322
0.00180926	30.9215
0.0018197	31.011
0.00183021	31.1007
0.00184077	31.1907
0.0018514	31.281
0.00186209	31.3716
0.00187284	31.4624
0.00188365	31.5535
0.00189452	31.6448
0.00190546	31.7364
0.00191646	31.8283
0.00192752	31.9204
0.00193865	32.0128
0.00194984	32.1055
0.0019611	32.1984
0.00197242	32.2916
0.00198381	32.385
0.00199526	32.4787
0.00200678	32.5727
0.00201837	32.667
0.00203002	32.7615
0.00204174	32.8564
0.00205353	32.9515
0.00206538	33.0468
0.0020773	33.1425
0.0020893	33.2384
0.00210136	33.3345
0.00211349	33.431
0.00212569	33.5278
0.00213796	33.6248
0.0021503	33.7221
0.00216272	33.8197
0.0021752	33.9176
0.00218776	34.0157
0.00220039	34.1141
0.00221309	34.2128
0.00222587	34.3119
0.00223872	34.4111
0.00225165	34.5107
0.00226464	34.6106
0.00227772	34.7107
0.00229087	34.8111
0.00230409	34.9119
0.00231739	35.0129
0.00233077	35.1142
0.00234423	35.2158
0.00235776	35.3177
0.00237137	35.4198
0.00238506	35.5223
0.00239883	35.6251
0.00241268	35.7282
0.00242661	35.8315
0.00244062	35.9352
0.00245471	36.0392
0.00246888	36.1434
0.00248313	36.248
0.00249747	36.3529
0.00251189	36.458
0.00252639	36.5635
0.00254097	36.6693
0.00255564	36.7753
0.0025704	36.8817
0.00258523	36.9884
0.00260016	37.0954
0.00261517	37.2027
0.00263027	37.3103
0.00264545	37.4183
0.00266073	37.5265
0.00267609	37.635
0.00269153	37.7439
0.00270707	37.8531
0.0027227	37.9626
0.00273842	38.0724
0.00275423	38.1825
0.00277013	38.293
0.00278612	38.4037
0.00280221	38.5148
0.00281838	38.6262
0.00283465	38.7379
0.00285102	38.8499
0.00286748	38.9623
0.00288403	39.075
0.00290068	39.188
0.00291743	39.3013
0.00293427	39.415
0.00295121	39.529
0.00296825	39.6433
0.00298538	39.758
0.00300262	39.873
0.00301995	39.9883
0.00303739	40.1039
0.00305492	40.2199
0.00307256	40.3362
0.0030903	40.4529
0.00310814	40.5698
0.00312608	40.6872
0.00314413	40.8048
0.00316228	40.9228
0.00318053	41.0412
0.0031989	41.1598
0.00321736	41.2789
0.00323594	41.3983
0.00325462	41.5179
0.00327341	41.638
0.0032923	41.7584
0.00331131	41.8792
0.00333043	42.0003
0.00334965	42.1217
0.00336899	42.2435
0.00338844	42.3656
0.003408	42.4881
0.00342768	42.611
0.00344747	42.7342
0.00346737	42.8578
0.00348739	42.9817
0.00350752	43.1059
0.00352777	43.2306
0.00354813	43.3556
0.00356862	43.4809
0.00358922	43.6066
0.00360994	43.7327
0.00363078	43.8591
0.00365174	43.9859
0.00367282	44.1131
0.00369403	44.2406
0.00371535	44.3685
0.0037368	44.4968
0.00375837	44.6255
0.00378007	44.7545
0.00380189	44.8838
0.00382384	45.0136
0.00384592	45.1437
0.00386812	45.2742
0.00389045	45.4051
0.00391291	45.5364
0.0039355	45.668
0.00395822	45.8
0.00398107	45.9324
0.00400405	46.0652
0.00402717	46.1984
0.00405042	46.3319
0.0040738	46.4658
0.00409732	46.6002
0.00412098	46.7349
0.00414477	46.87
0.00416869	47.0054
0.00419276	47.1413
0.00421697	47.2776
0.00424131	47.4142
0.0042658	47.5513
0.00429042	47.6887
0.00431519	47.8266
0.0043401	47.9648
0.00436516	48.1035
0.00439036	48.2425
0.0044157	48.3819
0.0044412	48.5218
0.00446684	48.662
0.00449262	48.8026
0.00451856	48.9437
0.00454465	49.0852
0.00457088	49.227
0.00459727	49.3693
0.00462381	49.512
0.0046505	49.6551
0.00467735	49.7986
0.00470435	49.9425
0.00473151	50.0868
0.00475883	50.2316
0.0047863	50.3768
0.00481393	50.5224
0.00484172	50.6684
0.00486968	50.8148
0.00489779	50.9616
0.00492606	51.1089
0.0049545	51.2566
0.0049831	51.4048
0.00501187	51.5533
0.00504081	51.7023
0.00506991	51.8517
0.00509918	52.027
0.00512861	52.1773
0.00515822	52.328
0.005188	52.505
0.00521795	52.6566
0.00524807	52.8086
0.00527837	52.961
0.00530884	53.1139
0.00533949	53.2672
0.00537032	53.4478
0.00540132	53.602
0.0054325	53.7567
0.00546387	53.939
0.00549541	54.0945
0.00552713	54.2505
0.00555904	54.407
0.00559114	54.5639
0.00562341	54.7492
0.00565588	54.907
0.00568853	55.0653
0.00572137	55.224
0.0057544	55.3832
0.00578762	55.5428
0.00582103	55.7029
0.00585464	55.8635
0.00588844	56.0245
0.00592243	56.186
0.00595662	56.3479
0.00599101	56.5104
0.0060256	56.6732
0.00606038	56.8366
0.00609537	57.0004
0.00613056	57.1647
0.00616595	57.3295
0.00620155	57.4947
0.00623735	57.6604
0.00627336	57.8267
0.00630957	57.9933
0.006346	58.1605
0.00638263	58.3281
0.00641948	58.4963
0.00645654	58.6649
0.00649382	58.834
0.00653131	59.0036
0.00656901	59.1736
0.00660693	59.3442
0.00664508	59.5152
0.00668344	59.6867
0.00672202	59.8588
0.00676083	60.0313
0.00679986	60.2044
0.00683912	60.3779
0.0068786	60.5519
0.00691831	60.7265
0.00695825	60.9015
0.00699842	61.0771
0.00703882	61.2531
0.00707946	61.4296
0.00712033	61.6067
0.00716143	61.7843
0.00720278	61.9624
0.00724436	62.141
0.00728618	62.3201
0.00732825	62.4997
0.00737055	62.6798
0.0074131	62.8605
0.0074559	63.0417
0.00749894	63.2234
0.00754223	63.4057
0.00758578	63.5884
0.00762957	63.7717
0.00767361	63.9555
0.00771792	64.1399
0.00776247	64.3247
0.00780728	64.5101
0.00785236	64.6961
0.00789769	64.8826
0.00794328	65.0696
0.00798914	65.2571
0.00803526	65.4452
0.00808165	65.6339
0.00812831	65.823
0.00817523	66.0128
0.00822243	66.203
0.0082699	66.3939
0.00831764	66.5852
0.00836566	66.7772
0.00841395	66.9696
0.00846253	67.1627
0.00851138	67.3563
0.00856052	67.5504
0.00860994	67.7451
0.00865964	67.9404
0.00870964	68.1362
0.00875992	68.3326
0.00881049	68.5296
0.00886135	68.7271
0.00891251	68.9252
0.00896396	69.1239
0.00901571	69.3231
0.00906776	69.5229
0.00912011	69.7233
0.00917276	69.9243
0.00922571	70.1258
0.00927897	70.328
0.00933254	70.5307
0.00938642	70.734
0.00944061	70.9379
0.00949511	71.1423
0.00954993	71.3474
0.00960506	71.553
0.00966051	71.7593
0.00971628	71.9661
0.00977237	72.1736
0.00982879	72.3816
0.00988553	72.5902
0.0099426	72.7994
0.01	73.0093
0.0100577	73.2197
0.0101158	73.4307
0.0101742	73.6424
0.0102329	73.8547
0.010292	74.0676
0.0103514	74.2811
0.0104112	74.4952
0.0104713	74.7099
0.0105317	74.9252
0.0105925	75.1412
0.0106537	75.3578
0.0107152	75.575
0.0107771	75.7928
0.0108393	76.0113
0.0109018	76.2304
0.0109648	76.4501
0.0110281	76.6705
0.0110917	76.8914
0.0111558	77.1131
0.0112202	77.3353
0.011285	77.5583
0.0113501	77.7818
0.0114156	78.006
0.0114815	78.2308
0.0115478	78.4563
0.0116145	78.6825
0.0116815	78.9093
0.011749	79.1367
0.0118168	79.3648
0.011885	79.5936
0.0119536	79.823
0.0120226	80.0531
0.0120921	80.2838
0.0121619	80.5152
0.0122321	80.7473
0.0123027	80.98
0.0123737	81.2135
0.0124451	81.4475
0.012517	81.6823
0.0125893	81.9177
0.0126619	82.1539
0.012735	82.3906
0.0128086	82.6281
0.0128825	82.8663
0.0129569	83.1052
0.0130317	83.3447
0.0131069	83.5849
0.0131826	83.8259
0.0132587	84.0675
0.0133352	84.3098
0.0134122	84.5528
0.0134896	84.7965
0.0135675	85.0409
0.0136458	85.286
0.0137246	85.5319
0.0138038	85.7784
0.0138835	86.0256
0.0139637	86.2736
0.0140443	86.5223
0.0141254	86.7717
0.0142069	87.0218
0.0142889	87.2726
0.0143714	87.5242
0.0144544	87.7765
0.0145378	88.0294
0.0146218	88.2832
0.0147062	88.5377
0.0147911	88.7929
0.0148765	89.0488
0.0149624	89.3055
0.0150487	89.5629
0.0151356	89.821
0.015223	90.0799
0.0153109	90.3396
0.0153993	90.6
0.0154882	90.8611
0.0155776	91.123
0.0156675	91.3856
0.015758	91.6491
0.0158489	91.9132
0.0159404	92.1781
0.0160325	92.4438
0.016125	92.7103
0.0162181	92.9775
0.0163117	93.2455
0.0164059	93.5143
0.0165006	93.7838
0.0165959	94.0541
0.0166917	94.3253
0.016788	94.5971
0.016885	94.8698
0.0169824	95.1433
0.0170805	95.4175
0.0171791	95.6925
0.0172783	95.9684
0.017378	96.245
0.0174783	96.5224
0.0175792	96.8006
0.0176807	97.0796
0.0177828	97.3594
0.0178855	97.6401
0.0179887	97.9215
0.0180926	98.2037
0.018197	98.4867
0.0183021	98.7706
0.0184077	99.0553
0.018514	99.3408
0.0186209	99.6272
0.0187284	99.9145
0.0188365	100.202
0.0189452	100.491
0.0190546	100.781
0.0191646	101.071
0.0192752	101.363
0.0193865	101.655
0.0194984	101.948
0.019611	102.242
0.0197242	102.536
0.0198381	102.832
0.0199526	103.128
0.0200678	103.426
0.0201837	103.724
0.0203002	104.023
0.0204174	104.322
0.0205353	104.623
0.0206538	104.925
0.020773	105.227
0.020893	105.53
0.0210136	105.835
0.0211349	106.14
0.0212569	106.446
0.0213796	106.752
0.021503	107.06
0.0216272	107.369
0.021752	107.678
0.0218776	107.989
0.0220039	108.3
0.0221309	108.612
0.0222587	108.925
0.0223872	109.239
0.0225165	109.554
0.0226464	109.87
0.0227772	110.187
0.0229087	110.504
0.0230409	110.823
0.0231739	111.142
0.0233077	111.462
0.0234423	111.784
0.0235776	112.106
0.0237137	112.429
0.0238506	112.753
0.0239883	113.078
0.0241268	113.404
0.0242661	113.731
0.0244062	114.058
0.0245471	114.387
0.0246888	114.717
0.0248313	115.048
0.0249747	115.379
0.0251189	115.712
0.0252639	116.045
0.0254097	116.38
0.0255564	116.715
0.025704	117.052
0.0258523	117.389
0.0260016	117.727
0.0261517	118.067
0.0263027	118.407
0.0264545	118.748
0.0266073	119.091
0.0267609	119.434
0.0269153	119.778
0.0270707	120.124
0.027227	120.47
0.0273842	120.817
0.0275423	121.165
0.0277013	121.514
0.0278612	121.865
0.0280221	122.216
0.0281838	122.568
0.0283465	122.922
0.0285102	123.276
0.0286748	123.631
0.0288403	123.988
0.0290068	124.345
0.0291743	124.703
0.0293427	125.063
0.0295121	125.423
0.0296825	125.785
0.0298538	126.148
0.0300262	126.511
0.0301995	126.876
0.0303739	127.241
0.0305492	127.608
0.0307256	127.976
0.030903	128.345
0.0310814	128.715
0.0312608	129.086
0.0314413	129.458
0.0316228	129.831
0.0318053	130.205
0.031989	130.58
0.0321736	130.957
0.0323594	131.334
0.0325462	131.713
0.0327341	132.092
0.032923	132.473
0.0331131	132.855
0.0333043	133.238
0.0334965	133.622
0.0336899	134.007
0.0338844	134.393
0.03408	134.781
0.0342768	135.169
0.0344747	135.559
0.0346737	135.95
0.0348739	136.341
0.0350752	136.734
0.0352777	137.129
0.0354813	137.524
0.0356862	137.92
0.0358922	138.318
0.0360994	138.716
0.0363078	139.116
0.0365174	139.517
0.0367282	139.919
0.0369403	140.323
0.0371535	140.727
0.037368	141.133
0.0375837	141.54
0.0378007	141.948
0.0380189	142.357
0.0382384	142.767
0.0384592	143.178
0.0386812	143.591
0.0389045	144.005
0.0391291	144.42
0.039355	144.837
0.0395822	145.254
0.0398107	145.673
0.0400405	146.092
0.0402717	146.514
0.0405042	146.936
0.040738	147.36
0.0409732	147.784
0.0412098	148.21
0.0414477	148.637
0.0416869	149.066
0.0419276	149.495
0.0421697	149.927
0.0424131	150.358
0.042658	150.792
0.0429042	151.226
0.0431519	151.662
0.043401	152.1
0.0436516	152.538
0.0439036	152.978
0.044157	153.419
0.044412	153.861
0.0446684	154.304
0.0449262	154.749
0.0451856	155.195
0.0454465	155.642
0.0457088	156.091
0.0459727	156.541
0.0462381	156.992
0.046505	157.445
0.0467735	157.898
0.0470435	158.354
0.0473151	158.81
0.0475883	159.268
0.047863	159.727
0.0481393	160.187
0.0484172	160.649
0.0486968	161.112
0.0489779	161.576
0.0492606	162.042
0.049545	162.509
0.049831	162.977
0.0501187	163.447
0.0504081	163.919
0.0506991	164.391
0.0509918	164.865
0.0512861	165.34
0.0515822	165.817
0.05188	166.295
0.0521795	166.774
0.0524807	167.255
0.0527837	167.737
0.0530884	168.22
0.0533949	168.705
0.0537032	169.191
0.0540132	169.679
0.054325	170.168
0.0546387	170.659
0.0549541	171.151
0.0552713	171.644
0.0555904	172.138
0.0559114	172.635
0.0562341	173.132
0.0565588	173.631
0.0568853	174.132
0.0572137	174.634
0.057544	175.137
0.0578762	175.642
0.0582103	176.148
0.0585464	176.656
0.0588844	177.165
0.0592243	177.676
0.0595662	178.188
0.0599101	178.701
0.060256	179.217
0.0606038	179.733
0.0609537	180.251
0.0613056	180.771
0.0616595	181.292
0.0620155	181.814
0.0623735	182.338
0.0627336	182.864
0.0630957	183.391
0.06346	183.92
0.0638263	184.45
0.0641948	184.981
0.0645654	185.515
0.0649382	186.049
0.0653131	186.585
0.0656901	187.124
0.0660693	187.663
0.0664508	188.204
0.0668344	188.746
0.0672202	189.29
0.0676083	189.836
0.0679986	190.383
0.0683912	190.931
0.068786	191.482
0.0691831	192.034
0.0695825	192.587
0.0699842	193.143
0.0703882	193.699
0.0707946	194.258
0.0712033	194.818
0.0716143	195.379
0.0720278	195.942
0.0724436	196.507
0.0728618	197.073
0.0732825	197.641
0.0737055	198.211
0.074131	198.783
0.074559	199.355
0.0749894	199.93
0.0754223	200.506
0.0758578	201.084
0.0762957	201.664
0.0767361	202.245
0.0771792	202.828
0.0776247	203.413
0.0780728	203.999
0.0785236	204.587
0.0789769	205.177
0.0794328	205.768
0.0798914	206.361
0.0803526	206.956
0.0808165	207.552
0.0812831	208.151
0.0817523	208.751
0.0822243	209.352
0.082699	209.956
0.0831764	210.561
0.0836566	211.168
0.0841395	211.777
0.0846253	212.387
0.0851138	212.999
0.0856052	213.613
0.0860994	214.229
0.0865964	214.846
0.0870964	215.466
0.0875992	216.086
0.0881049	216.709
0.0886135	217.334
0.0891251	217.961
0.0896396	218.589
0.0901571	219.219
0.0906776	219.851
0.0912011	220.484
0.0917276	221.12
0.0922571	221.757
0.0927897	222.397
0.0933254	223.037
0.0938642	223.681
0.0944061	224.325
0.0949511	224.972
0.0954993	225.62
0.0960506	226.271
0.0966051	226.923
0.0971628	227.577
0.0977237	228.233
0.0982879	228.891
0.0988553	229.551
0.099426	230.212
0.1	230.876
0.100577	231.541
0.101158	232.208
0.101742	232.878
0.102329	233.549
0.10292	234.222
0.103514	234.897
0.104112	235.574
0.104713	236.253
0.105317	236.934
0.105925	237.617
0.106537	238.302
0.107152	238.989
0.107771	239.678
0.108393	240.369
0.109018	241.061
0.109648	241.756
0.110281	242.453
0.110917	243.152
0.111558	243.853
0.112202	244.556
0.11285	245.261
0.113501	245.968
0.114156	246.677
0.114815	247.388
0.115478	248.101
0.116145	248.816
0.116815	249.533
0.11749	250.252
0.118168	250.974
0.11885	251.697
0.119536	252.422
0.120226	253.15
0.120921	253.88
0.121619	254.612
0.122321	255.345
0.123027	256.081
0.123737	256.82
0.124451	257.56
0.12517	258.302
0.125893	259.047
0.126619	259.793
0.12735	260.542
0.128086	261.293
0.128825	262.046
0.129569	262.802
0.130317	263.559
0.131069	264.319
0.131826	265.081
0.132587	265.845
0.133352	266.611
0.134122	267.379
0.134896	268.15
0.135675	268.923
0.136458	269.698
0.137246	270.475
0.138038	271.255
0.138835	272.037
0.139637	272.821
0.140443	273.607
0.141254	274.396
0.142069	275.187
0.142889	275.98
0.143714	276.776
0.144544	277.573
0.145378	278.374
0.146218	279.176
0.147062	279.981
0.147911	280.788
0.148765	281.597
0.149624	282.409
0.150487	283.223
0.151356	284.039
0.15223	284.858
0.153109	285.679
0.153993	286.502
0.154882	287.328
0.155776	288.156
0.156675	288.987
0.15758	289.82
0.158489	290.655
0.159404	291.493
0.160325	292.333
0.16125	293.176
0.162181	294.021
0.163117	294.868
0.164059	295.718
0.165006	296.57
0.165959	297.425
0.166917	298.283
0.16788	299.143
0.16885	300.005
0.169824	300.869
0.170805	301.737
0.171791	302.606
0.172783	303.479
0.17378	304.353
0.174783	305.231
0.175792	306.11
0.176807	306.993
0.177828	307.878
0.178855	308.765
0.179887	309.655
0.180926	310.547
0.18197	311.443
0.183021	312.34
0.184077	313.241
0.18514	314.143
0.186209	315.049
0.187284	315.957
0.188365	316.868
0.189452	317.781
0.190546	318.697
0.191646	319.616
0.192752	320.537
0.193865	321.461
0.194984	322.388
0.19611	323.317
0.197242	324.248
0.198381	325.183
0.199526	326.12
0.200678	327.06
0.201837	328.003
0.203002	328.948
0.204174	329.896
0.205353	330.848
0.206538	331.801
0.20773	332.758
0.20893	333.717
0.210136	334.679
0.211349	335.643
0.212569	336.611
0.213796	337.581
0.21503	338.554
0.216272	339.53
0.21752	340.509
0.218776	341.49
0.220039	342.474
0.221309	343.461
0.222587	344.451
0.223872	345.444
0.225165	346.44
0.226464	347.438
0.227772	348.44
0.229087	349.444
0.230409	350.451
0.231739	351.462
0.233077	352.475
0.234423	353.491
0.235776	354.51
0.237137	355.532
0.238506	356.556
0.239883	357.584
0.241268	358.615
0.242661	359.648
0.244062	360.685
0.245471	361.725
0.246888	362.767
0.248313	363.813
0.249747	364.862
0.251189	365.913
0.252639	366.968
0.254097	368.026
0.255564	369.086
0.25704	370.15
0.258523	371.217
0.260016	372.287
0.261517	373.36
0.263027	374.436
0.264545	375.515
0.266073	376.598
0.267609	377.683
0.269153	378.772
0.270707	379.864
0.27227	380.959
0.273842	382.057
0.275423	383.158
0.277013	384.262
0.278612	385.37
0.280221	386.481
0.281838	387.595
0.283465	388.712
0.285102	389.832
0.286748	390.956
0.288403	392.083
0.290068	393.213
0.291743	394.347
0.293427	395.483
0.295121	396.623
0.296825	397.766
0.298538	398.913
0.300262	400.063
0.301995	401.216
0.303739	402.372
0.305492	403.532
0.307256	404.695
0.30903	405.861
0.310814	407.031
0.312608	408.205
0.314413	409.381
0.316228	410.561
0.318053	411.745
0.31989	412.931
0.321736	414.122
0.323594	415.316
0.325462	416.513
0.327341	417.713
0.32923	418.917
0.331131	420.125
0.333043	421.335
0.334965	422.55
0.336899	423.768
0.338844	424.989
0.3408	426.214
0.342768	427.443
0.344747	428.675
0.346737	429.911
0.348739	431.15
0.350752	432.392
0.352777	433.638
0.354813	434.889
0.356862	436.142
0.358922	437.399
0.360994	438.66
0.363078	439.924
0.365174	441.192
0.367282	442.464
0.369403	443.739
0.371535	445.018
0.37368	446.301
0.375837	447.587
0.378007	448.878
0.380189	450.172
0.382384	451.469
0.384592	452.77
0.386812	454.075
0.389045	455.384
0.391291	456.697
0.39355	458.013
0.395822	459.333
0.398107	460.657
0.400405	461.985
0.402717	463.317
0.405042	464.652
0.40738	465.992
0.409732	467.335
0.412098	468.682
0.414477	470.033
0.416869	471.387
0.419276	472.746
0.421697	474.109
0.424131	475.475
0.42658	476.846
0.429042	478.22
0.431519	479.599
0.43401	480.981
0.436516	482.367
0.439036	483.758
0.44157	485.152
0.44412	486.551
0.446684	487.953
0.449262	489.359
0.451856	490.77
0.454465	492.185
0.457088	493.603
0.459727	495.026
0.462381	496.453
0.46505	497.884
0.467735	499.319
0.470435	500.758
0.473151	502.202
0.475883	503.662
0.47863	505.153
0.481393	506.65
0.484172	508.151
0.486968	509.658
0.489779	511.17
0.492606	512.688
0.49545	514.21
0.49831	515.738
0.501187	517.29
0.504081	518.873
0.506991	520.463
0.509918	522.059
0.512861	523.661
0.515822	525.27
0.5188	526.885
0.521795	528.507
0.524807	530.135
0.527837	531.77
0.530884	533.411
0.533949	535.058
0.537032	536.712
0.540132	538.373
0.54325	540.04
0.546387	541.713
0.549541	543.393
0.552713	545.08
0.555904	546.773
0.559114	548.473
0.562341	550.179
0.565588	551.892
0.568853	553.612
0.572137	555.327
0.57544	557.048
0.578762	558.818
0.582103	560.596
0.585464	562.382
0.588844	564.175
0.592243	565.976
0.595662	567.785
0.599101	569.601
0.60256	571.445
0.606038	573.305
0.609537	575.173
0.613056	577.05
0.616595	578.936
0.620155	580.83
0.623735	582.734
0.627336	584.646
0.630957	586.567
